TEXTURE AT STRAIN = 0
***
***
B 3000
  91.73   92.48  340.27   0.0003333
  74.34  161.54  326.57   0.0003333
 159.32   68.38  345.72   0.0003333
 295.77  101.36  150.55   0.0003333
 113.77   37.77  281.05   0.0003333
 293.82   99.80  174.36   0.0003333
   0.38   95.47   84.91   0.0003333
 238.94   57.50   47.95   0.0003333
 210.25  171.09   45.82   0.0003333
 327.28   85.28  320.72   0.0003333
 284.27  139.45  179.34   0.0003333
 307.51   75.93  211.20   0.0003333
 118.73   49.23   85.98   0.0003333
 261.74  133.99  350.28   0.0003333
  71.41  101.57  275.77   0.0003333
 100.36   47.41  124.67   0.0003333
 132.18   69.18  168.11   0.0003333
  30.71  100.84  260.11   0.0003333
 204.59   80.16  236.73   0.0003333
 348.57   81.01  202.20   0.0003333
 225.03  137.97  333.88   0.0003333
  97.26   37.66  287.74   0.0003333
 232.34   44.54  238.22   0.0003333
 292.99   83.08  130.68   0.0003333
 180.24   86.77  236.70   0.0003333
 201.40   68.08  309.16   0.0003333
 151.96   73.66   17.50   0.0003333
 160.32  112.40  150.80   0.0003333
 125.74  156.59  316.89   0.0003333
   4.70  153.51  146.65   0.0003333
  32.14  148.30  226.76   0.0003333
 274.96   25.92  325.18   0.0003333
 139.82  122.35  314.04   0.0003333
 233.22   34.00  122.58   0.0003333
 318.62  117.19   69.90   0.0003333
  98.10   59.47  215.32   0.0003333
 287.73  142.22  352.35   0.0003333
 184.15  101.88  163.53   0.0003333
 266.00   87.90  142.63   0.0003333
 166.28  111.01   52.43   0.0003333
  50.70   94.22   44.35   0.0003333
 315.29   85.12  187.99   0.0003333
 342.94  100.33    6.74   0.0003333
   9.66  117.97  264.11   0.0003333
  18.50  177.01  312.14   0.0003333
 119.65   49.02  349.49   0.0003333
 257.38   63.84  278.36   0.0003333
 233.69  131.57  224.21   0.0003333
 201.76   86.77  119.40   0.0003333
 298.31    9.90  295.99   0.0003333
  55.32  120.93  210.94   0.0003333
 104.91  134.52   79.71   0.0003333
 291.92  123.35  243.77   0.0003333
  65.85   84.24  233.37   0.0003333
 101.72   39.20  169.82   0.0003333
   7.44   35.42  246.97   0.0003333
 198.65   90.42  119.37   0.0003333
 353.38   57.13   77.12   0.0003333
  51.27  141.13  192.17   0.0003333
 303.07   84.29  119.69   0.0003333
 311.37  159.43  251.63   0.0003333
  88.83  122.18  178.69   0.0003333
  67.13   90.98  276.00   0.0003333
   9.47   71.85  186.99   0.0003333
 137.74   79.54  251.12   0.0003333
 303.96  122.38  359.83   0.0003333
 255.24   38.72   99.66   0.0003333
  66.65   97.76    2.12   0.0003333
 111.54   48.65   75.40   0.0003333
 185.20   48.37  313.69   0.0003333
 296.49   68.16  333.77   0.0003333
 269.84   81.19  249.80   0.0003333
  80.35  139.17   31.90   0.0003333
 163.93  109.67  128.52   0.0003333
   5.60  129.71  151.78   0.0003333
 292.46  130.10  195.00   0.0003333
 250.97  128.35  244.43   0.0003333
 271.41   27.74   60.10   0.0003333
 161.88   80.41  235.88   0.0003333
 209.76   65.90  173.16   0.0003333
 213.73   36.08  280.20   0.0003333
 168.12   65.10  305.09   0.0003333
 351.38  136.04  241.93   0.0003333
 223.85  100.38  105.72   0.0003333
 222.20    5.14   29.55   0.0003333
  42.33  103.46   79.51   0.0003333
 314.66  156.97  249.82   0.0003333
 250.05  157.28  221.53   0.0003333
 109.68  129.75  158.05   0.0003333
 136.37  141.06   25.98   0.0003333
 272.40  128.86  284.45   0.0003333
 182.53   40.97    2.49   0.0003333
  41.42  103.32  282.44   0.0003333
 144.75   58.97   93.62   0.0003333
  71.28   84.85   43.18   0.0003333
 181.52  127.36   82.51   0.0003333
 349.24  121.42   93.20   0.0003333
  50.13  130.96  192.69   0.0003333
 168.40   43.69  183.98   0.0003333
 352.79  131.53  273.26   0.0003333
 195.18  119.87  265.21   0.0003333
 212.86  116.26   74.34   0.0003333
 114.62   87.36  101.19   0.0003333
 358.33   34.47   25.75   0.0003333
 222.61  115.99  301.05   0.0003333
  92.08   38.87  342.92   0.0003333
 279.40   73.07   54.30   0.0003333
  12.23   40.15   57.63   0.0003333
   8.13   77.77  277.11   0.0003333
 116.46   73.73  130.53   0.0003333
 266.75   98.64  228.40   0.0003333
  54.76  103.81   23.46   0.0003333
 226.41   63.79   73.52   0.0003333
  57.48   83.43  212.62   0.0003333
  92.56   84.20   14.85   0.0003333
 299.46   72.00   51.41   0.0003333
  85.06  151.58  357.98   0.0003333
 255.88   96.43  296.76   0.0003333
 297.82   56.07  164.71   0.0003333
 185.45   63.29  308.74   0.0003333
 335.56  119.06  277.51   0.0003333
 107.57   61.44  317.63   0.0003333
  15.43    7.19  185.25   0.0003333
 330.42   55.15  342.93   0.0003333
 230.14  166.91  224.42   0.0003333
 144.54  102.53  164.51   0.0003333
  99.46  106.33   83.67   0.0003333
 159.73  158.23  134.88   0.0003333
  23.41   41.72   85.70   0.0003333
  18.36   82.55  208.87   0.0003333
   4.36  133.90  254.33   0.0003333
  50.41   72.38   99.86   0.0003333
 128.17   47.24  329.51   0.0003333
 229.92  111.16  137.35   0.0003333
 118.76   45.39  116.59   0.0003333
  71.66   47.34  160.81   0.0003333
  50.32  119.72   13.00   0.0003333
 240.82   92.00  295.00   0.0003333
 348.00   81.73  169.76   0.0003333
 333.34   37.82  114.21   0.0003333
 318.65  115.14  335.00   0.0003333
  74.51   66.43  342.21   0.0003333
 231.62   82.55  236.76   0.0003333
 272.36  122.34  147.75   0.0003333
 253.28   35.62  157.46   0.0003333
 264.82  105.54   83.22   0.0003333
  94.97   67.16  236.27   0.0003333
 322.11  101.98  120.65   0.0003333
  22.42   91.24  285.87   0.0003333
  72.09   59.26  101.72   0.0003333
 322.42  138.14   60.96   0.0003333
 120.81   93.59  232.85   0.0003333
 267.92  117.60   18.55   0.0003333
 166.04   79.03  329.08   0.0003333
 146.42  116.36  108.84   0.0003333
 294.74  114.06   92.88   0.0003333
 276.21  113.91  239.02   0.0003333
  91.95   32.98  146.12   0.0003333
  34.76  103.79  239.34   0.0003333
 231.38   86.37   78.73   0.0003333
  16.89   25.09  356.42   0.0003333
 310.68  109.24  323.00   0.0003333
 213.29   67.22  265.05   0.0003333
  28.67   94.04  194.40   0.0003333
 268.96   60.45  255.30   0.0003333
 304.91   92.62   23.78   0.0003333
 206.02  102.93  245.16   0.0003333
 113.25   84.12  120.18   0.0003333
 138.35   34.13   39.24   0.0003333
 313.29  161.04   47.50   0.0003333
 288.12  127.06  324.59   0.0003333
 111.84   34.86  188.05   0.0003333
  64.28   85.06   37.21   0.0003333
  69.95   47.53  280.85   0.0003333
  57.95    7.92  190.77   0.0003333
 176.42   95.27  266.09   0.0003333
 318.07  105.15  183.87   0.0003333
 262.98  102.34  313.49   0.0003333
  27.43   82.24  201.05   0.0003333
 206.87   33.54  294.22   0.0003333
 192.56   89.89  286.58   0.0003333
 138.54  145.88   20.37   0.0003333
 315.08   60.26  334.35   0.0003333
 350.25  130.84  258.65   0.0003333
 256.71  159.16   15.79   0.0003333
 304.52  138.85  331.24   0.0003333
  87.75  152.19  264.34   0.0003333
  92.04   86.28   45.15   0.0003333
 138.56  102.40  173.40   0.0003333
 124.77  106.53  151.31   0.0003333
  26.43   96.17  297.96   0.0003333
 199.01   53.67  271.67   0.0003333
 330.01  128.87   27.26   0.0003333
  80.81  113.21  124.98   0.0003333
 352.16   59.58  217.71   0.0003333
 359.75   77.21  162.79   0.0003333
  37.05   47.83   66.84   0.0003333
 102.89   59.84  356.79   0.0003333
 194.25  151.51  181.53   0.0003333
   7.02   35.18  168.58   0.0003333
 172.15   28.38  291.94   0.0003333
  29.15   99.63  294.62   0.0003333
 320.70  135.72  292.11   0.0003333
 151.40   76.15  259.73   0.0003333
  63.50   73.78  274.22   0.0003333
 284.93   65.43  217.07   0.0003333
 346.91  145.97  275.92   0.0003333
   5.90   73.07  223.17   0.0003333
 259.94  150.04  305.81   0.0003333
 298.34   84.91  167.51   0.0003333
 280.38   70.13  330.56   0.0003333
 288.98  148.24  291.29   0.0003333
 131.35   98.59  162.75   0.0003333
 153.84  145.65  338.68   0.0003333
  90.53  148.77  288.95   0.0003333
 159.22  115.12  102.52   0.0003333
  15.34  151.81  136.62   0.0003333
 135.04  128.99  337.33   0.0003333
 351.89   87.11  212.09   0.0003333
  34.40  129.73  186.53   0.0003333
 211.14   66.84  112.97   0.0003333
 137.88  138.50  158.78   0.0003333
 284.82   82.22  341.32   0.0003333
 184.43   69.09  351.47   0.0003333
 197.97  160.45   90.26   0.0003333
  50.23  121.25  138.81   0.0003333
 299.21   49.52  281.93   0.0003333
 118.37   83.12  104.07   0.0003333
 233.43   93.69   89.34   0.0003333
  81.77   66.92   46.25   0.0003333
 312.89  113.59  330.18   0.0003333
 218.31   25.29  294.12   0.0003333
 182.46   95.14  186.68   0.0003333
  50.01  118.80  344.96   0.0003333
 167.16   16.70  114.62   0.0003333
 259.37   59.01  143.79   0.0003333
 149.52   10.18  304.19   0.0003333
 262.04  117.97  119.22   0.0003333
 359.17   95.75  284.87   0.0003333
  49.43   43.70  197.81   0.0003333
 354.50   83.81  139.55   0.0003333
 328.19   44.25  205.06   0.0003333
 278.57  138.70  150.87   0.0003333
 318.51   84.25  148.22   0.0003333
 145.89   99.74  152.58   0.0003333
 164.78   86.47  162.46   0.0003333
 151.01   44.01  322.10   0.0003333
  18.57   90.82  259.40   0.0003333
 284.54   61.80  316.28   0.0003333
 201.14  135.64  305.25   0.0003333
 167.68  140.48   78.26   0.0003333
 278.84   97.67  317.78   0.0003333
  73.52   64.50  150.81   0.0003333
  63.48  137.49   58.94   0.0003333
  99.22   29.99  169.19   0.0003333
 343.71  102.87   82.80   0.0003333
 261.27   71.86   55.06   0.0003333
 157.08   62.57  270.79   0.0003333
 224.22   81.94  193.52   0.0003333
 264.00  137.36  256.82   0.0003333
 121.10   43.11  102.63   0.0003333
 214.03   29.53  228.44   0.0003333
 142.12  109.19  132.78   0.0003333
 222.56  127.21  173.12   0.0003333
  63.78   31.04  106.81   0.0003333
   6.24   34.56  190.00   0.0003333
 266.02   23.95  114.19   0.0003333
  19.69  106.34   97.70   0.0003333
 267.57   36.12   62.55   0.0003333
 262.47   38.09  152.46   0.0003333
 157.04  103.46  211.16   0.0003333
   0.54  133.14  117.33   0.0003333
  79.01   73.51  271.03   0.0003333
 139.71  157.40   36.78   0.0003333
 260.77  150.03   16.46   0.0003333
  96.16   94.47   77.08   0.0003333
 266.65  146.77  270.47   0.0003333
 192.77   48.20  294.24   0.0003333
 342.83  138.66  300.67   0.0003333
  10.97   13.44  265.25   0.0003333
 237.75  121.70  185.69   0.0003333
 310.59  116.46  332.27   0.0003333
  99.94   44.86  316.81   0.0003333
 209.05  120.01  342.26   0.0003333
  50.71  103.29  179.18   0.0003333
  42.80  154.53  227.74   0.0003333
  11.27  140.75  245.67   0.0003333
 173.10  107.68  283.29   0.0003333
 235.48   86.78  179.06   0.0003333
 153.58   32.76  240.77   0.0003333
 328.40  111.35  177.31   0.0003333
 145.38   87.10  116.21   0.0003333
 235.14   91.82   25.63   0.0003333
 135.02  151.74  243.23   0.0003333
 135.84   42.56  237.04   0.0003333
  33.42   72.45  219.59   0.0003333
 119.73   46.02   74.92   0.0003333
 249.66  107.95  142.85   0.0003333
  61.52  149.73  107.56   0.0003333
 124.53  167.70  227.84   0.0003333
 311.43    9.45  253.98   0.0003333
 303.00   65.48  294.96   0.0003333
 329.54  124.38    3.37   0.0003333
 241.64   66.66  349.77   0.0003333
  69.61   79.00    7.09   0.0003333
 167.84   97.32   52.96   0.0003333
 165.97  124.33   86.75   0.0003333
 264.56  102.64  174.10   0.0003333
 211.25   71.11  160.77   0.0003333
  77.52   60.54  215.33   0.0003333
  25.41   74.81  235.04   0.0003333
 296.48   81.17   14.89   0.0003333
 164.61   98.21  316.86   0.0003333
  32.54  100.15  112.44   0.0003333
 223.25   19.52  326.30   0.0003333
 279.62   35.14  278.23   0.0003333
  52.44   89.88  320.75   0.0003333
 258.89   33.23  305.41   0.0003333
 271.85  120.32  210.72   0.0003333
 125.25  107.81   96.20   0.0003333
  57.92  150.41   71.24   0.0003333
 153.69  165.31  148.38   0.0003333
 288.60   87.70  275.74   0.0003333
  74.30   72.26  349.72   0.0003333
 236.50  102.22    3.44   0.0003333
 284.46   76.19  334.20   0.0003333
  66.89   74.88  132.35   0.0003333
 291.17  120.42  347.31   0.0003333
 339.37   77.07  202.33   0.0003333
  86.01  121.45   18.85   0.0003333
 251.56   31.73    5.74   0.0003333
 230.37   76.34  357.75   0.0003333
 160.27  104.66  231.26   0.0003333
  52.58   70.10   66.13   0.0003333
  30.64   36.14  155.39   0.0003333
   4.32   86.11  312.30   0.0003333
  89.70   89.06  172.12   0.0003333
 315.10  126.12  102.50   0.0003333
 212.29  136.87  328.77   0.0003333
 178.27   53.84   46.72   0.0003333
  13.81  128.29   91.28   0.0003333
  95.65  175.02  302.82   0.0003333
 108.79   44.31  279.43   0.0003333
 254.21   11.48  298.83   0.0003333
  48.13   10.69  278.93   0.0003333
  77.61  132.92  179.52   0.0003333
  12.78  122.69   32.52   0.0003333
 206.86  135.59   59.62   0.0003333
 235.21  150.10  237.26   0.0003333
  66.12   14.10   13.90   0.0003333
 120.16  128.34  104.76   0.0003333
 303.11   67.16  319.17   0.0003333
 341.28   17.33   93.66   0.0003333
  90.61   98.66   45.09   0.0003333
 189.79   97.17   71.53   0.0003333
  87.88  152.07  352.44   0.0003333
 121.23   68.12  108.73   0.0003333
 288.49  109.74  198.02   0.0003333
 240.09   71.34   21.81   0.0003333
 229.21   29.69  159.77   0.0003333
  51.57  112.64  172.95   0.0003333
 295.24  157.29   79.32   0.0003333
  64.25   82.21  184.54   0.0003333
  64.58   72.44  268.26   0.0003333
 234.60  118.51  336.08   0.0003333
 156.46   24.11   45.28   0.0003333
 136.80   67.18  184.68   0.0003333
 179.83   58.79  243.44   0.0003333
  24.48   64.07  181.42   0.0003333
 211.52  143.50  196.14   0.0003333
 339.82  109.95  336.49   0.0003333
 253.65  114.64  175.63   0.0003333
 173.45   69.33  275.27   0.0003333
 308.92  115.69  221.56   0.0003333
  41.51  129.16    8.53   0.0003333
  93.64   96.85  120.05   0.0003333
 358.30  105.72  116.18   0.0003333
 121.50   55.04  190.84   0.0003333
  90.02   93.85  221.45   0.0003333
 275.24   48.35  173.08   0.0003333
 351.25   93.12  234.20   0.0003333
 138.09  105.35  200.29   0.0003333
  50.73   52.70  246.41   0.0003333
 145.65  174.32  304.66   0.0003333
 291.86  174.46  276.56   0.0003333
 218.17   76.67   94.85   0.0003333
 308.65   49.54   20.51   0.0003333
 236.48   80.10  300.65   0.0003333
 296.43  142.43  236.29   0.0003333
 182.33   88.62  211.86   0.0003333
 321.58  157.42  201.56   0.0003333
 101.05   77.54   39.65   0.0003333
 319.85   70.60   21.47   0.0003333
 290.14  147.45   90.00   0.0003333
 297.74   95.89  306.67   0.0003333
  65.92   74.54  343.34   0.0003333
 126.38   54.76  257.42   0.0003333
 286.59   96.93   84.03   0.0003333
  11.22  142.45  137.98   0.0003333
 313.56   65.46  157.15   0.0003333
 318.66   95.05  318.88   0.0003333
 128.35   50.34  263.46   0.0003333
 152.11   63.39  296.03   0.0003333
  92.43  122.33  286.69   0.0003333
 208.19   84.40  355.29   0.0003333
 117.82   83.45  206.35   0.0003333
 350.85  103.95    7.28   0.0003333
  87.51    2.94  280.89   0.0003333
 241.50  128.64  107.94   0.0003333
 203.00   87.28  354.73   0.0003333
 144.66   15.49  144.75   0.0003333
  79.53   87.12  246.04   0.0003333
 159.59  147.87  299.07   0.0003333
 242.05   60.09  274.30   0.0003333
 149.74   80.66  167.14   0.0003333
 180.26   45.74  224.97   0.0003333
 196.75  100.35   71.56   0.0003333
 203.15   38.18  203.50   0.0003333
  23.42   44.86  148.97   0.0003333
 319.21   94.91  276.43   0.0003333
   1.79   85.46  267.89   0.0003333
 312.69  134.52  157.13   0.0003333
 269.46   91.27   25.43   0.0003333
 268.46   82.05  322.38   0.0003333
 305.26  108.49  337.69   0.0003333
 265.36   80.55  128.38   0.0003333
 121.51  130.27  159.82   0.0003333
 167.09  132.03   32.35   0.0003333
  51.66   69.42  340.30   0.0003333
  37.27  128.98  329.08   0.0003333
 327.11   77.16   32.54   0.0003333
  41.47   65.78  219.81   0.0003333
  87.97   19.38   33.71   0.0003333
  80.88   92.39   78.60   0.0003333
 224.00   61.20  333.22   0.0003333
 354.57   89.06  240.42   0.0003333
 254.93  161.17  180.19   0.0003333
  89.91   50.47   69.27   0.0003333
 175.05   44.15   70.26   0.0003333
 105.39   37.51   89.11   0.0003333
  77.94   66.36  347.11   0.0003333
  26.71  139.47  121.04   0.0003333
 255.97  119.31  176.11   0.0003333
 216.29   52.00    4.17   0.0003333
 113.00  128.81  257.17   0.0003333
 154.18  136.24   22.44   0.0003333
 321.45   96.36  230.74   0.0003333
 215.53  103.11   61.32   0.0003333
 358.79  131.61  212.96   0.0003333
 117.25   54.05  125.15   0.0003333
 293.68   37.29   38.63   0.0003333
  50.83   94.65   83.08   0.0003333
 217.68  132.31  147.76   0.0003333
 284.61  117.55   42.93   0.0003333
 269.49   87.63   29.30   0.0003333
 183.54  123.01   67.86   0.0003333
 249.62   76.98  185.18   0.0003333
 138.53  155.66   18.52   0.0003333
 337.95  166.83  282.85   0.0003333
 321.23   87.36   11.95   0.0003333
 334.90   46.58   47.23   0.0003333
 216.85   38.40  171.40   0.0003333
 262.43   68.21  127.57   0.0003333
 141.97   92.05  204.29   0.0003333
 130.26   96.67   99.88   0.0003333
  73.33  103.87  319.19   0.0003333
  10.90   20.56  326.14   0.0003333
 153.79   55.37  219.79   0.0003333
 255.58   33.96   32.84   0.0003333
 173.53  126.42  254.25   0.0003333
 149.89  101.33  273.61   0.0003333
  96.72  154.21  211.91   0.0003333
 263.07  111.53   65.78   0.0003333
  12.28  137.94  272.72   0.0003333
 135.04   30.37  175.51   0.0003333
 137.67   98.54  218.12   0.0003333
 258.18  137.08   81.06   0.0003333
 124.25   87.78  202.87   0.0003333
 205.83  144.75  151.47   0.0003333
 130.51  119.93  265.72   0.0003333
  39.45   86.95   67.35   0.0003333
 328.89  120.69   34.11   0.0003333
 194.58  132.60  152.71   0.0003333
  82.05   87.05    6.72   0.0003333
 306.45   72.52   48.73   0.0003333
 320.75  119.06   84.38   0.0003333
 354.23   48.52   47.62   0.0003333
 255.39  101.45  333.02   0.0003333
 294.54  128.46  230.66   0.0003333
 143.74  134.25  252.79   0.0003333
 182.52  133.59  260.98   0.0003333
 242.60   57.99  283.08   0.0003333
 276.39   89.05   48.86   0.0003333
  63.21   70.20   68.60   0.0003333
   2.64   35.06  131.37   0.0003333
 285.77   94.93  259.64   0.0003333
 314.37  113.83  173.75   0.0003333
 116.45   76.33  206.68   0.0003333
 359.58   86.11  321.41   0.0003333
 314.84   81.55   87.79   0.0003333
   2.91   57.59  117.45   0.0003333
  89.46   19.41   11.65   0.0003333
 323.97   18.57   21.01   0.0003333
 155.40   63.17   57.35   0.0003333
 153.97   67.11  330.41   0.0003333
  15.20  109.88  359.48   0.0003333
  56.72   59.94   70.58   0.0003333
 310.09  126.25    2.30   0.0003333
 201.19   26.81   27.77   0.0003333
 123.61   11.02   61.75   0.0003333
 320.39   62.85  194.84   0.0003333
 201.20  109.19  247.79   0.0003333
  72.90   80.17  138.04   0.0003333
  31.45   33.06  345.66   0.0003333
 206.31  131.71   49.76   0.0003333
 337.32  160.72   84.75   0.0003333
  31.97  124.11  326.33   0.0003333
  99.26   22.56  254.22   0.0003333
 264.21  122.83  126.25   0.0003333
  52.28   65.45  269.02   0.0003333
 221.70  107.14  308.91   0.0003333
 287.35   65.23  248.62   0.0003333
 295.28   79.78  206.78   0.0003333
 312.71   38.51  205.55   0.0003333
 291.58   72.92  261.02   0.0003333
  21.84   62.47  235.58   0.0003333
 212.67  136.62  202.75   0.0003333
 290.01  162.69  121.69   0.0003333
  16.91   45.77  247.37   0.0003333
 322.24   87.11  117.99   0.0003333
  67.27  123.15  242.49   0.0003333
 299.69   46.90  196.13   0.0003333
  22.55   98.04   87.40   0.0003333
  36.01   66.35  312.82   0.0003333
 201.63   98.88  312.15   0.0003333
  84.07  108.09  274.90   0.0003333
 259.09  135.56  283.69   0.0003333
  93.33  115.27  143.33   0.0003333
 215.74   96.78  283.77   0.0003333
  70.17  122.19  286.20   0.0003333
 331.97  103.53   43.22   0.0003333
  56.01   58.51  114.88   0.0003333
 228.11  102.25   54.57   0.0003333
 324.65   52.53   21.72   0.0003333
 308.82   83.19   35.31   0.0003333
 163.44   76.30   22.80   0.0003333
 302.02  122.43   66.04   0.0003333
 320.40  137.98  288.78   0.0003333
 140.28  117.57  350.64   0.0003333
 292.12  111.11  343.41   0.0003333
 116.01  128.58  185.38   0.0003333
 311.36   94.72  172.35   0.0003333
 301.95  110.61  154.70   0.0003333
 202.77   64.89  186.01   0.0003333
 276.07  117.45  174.40   0.0003333
  33.33   62.07  336.48   0.0003333
 241.67   65.43  183.25   0.0003333
 160.17   54.47  103.81   0.0003333
  56.27   48.88  267.17   0.0003333
 149.89   86.13   30.94   0.0003333
  86.98   65.31  134.53   0.0003333
 126.36  176.35  101.78   0.0003333
  71.91   51.83  338.93   0.0003333
 355.94  118.17  162.09   0.0003333
 115.33  172.35   48.52   0.0003333
 298.79   52.72  358.23   0.0003333
 213.86   57.71  292.96   0.0003333
 119.43   70.75    0.75   0.0003333
 153.60  136.21  320.25   0.0003333
 272.50   70.92  117.85   0.0003333
 218.12   82.40   25.71   0.0003333
  27.77   85.53   69.02   0.0003333
 166.12  141.54   40.17   0.0003333
  22.82  139.93   62.57   0.0003333
  79.00   38.03   24.05   0.0003333
 144.72   77.51  319.40   0.0003333
  70.27   66.83  167.42   0.0003333
 323.16   39.01  151.58   0.0003333
 115.78   24.83  343.12   0.0003333
 239.74  114.56  282.35   0.0003333
 236.40   24.84  228.66   0.0003333
  12.80  121.46  194.52   0.0003333
  53.29  152.68  193.71   0.0003333
 221.53  160.59  278.52   0.0003333
 314.61  148.67   13.52   0.0003333
 337.94   75.00  161.04   0.0003333
  35.70   14.46  247.25   0.0003333
 316.07   89.58    7.66   0.0003333
 221.73  153.94   74.46   0.0003333
 174.87  149.87   15.45   0.0003333
 128.61   26.80  281.24   0.0003333
 338.98  146.01  214.88   0.0003333
 299.38   89.57  205.40   0.0003333
 285.35   51.91  249.92   0.0003333
 183.94   76.25   20.51   0.0003333
  90.45  138.65    2.06   0.0003333
 136.92   99.22  200.57   0.0003333
 275.86  149.41  200.59   0.0003333
  94.54   86.52   16.60   0.0003333
  29.74  133.53  191.82   0.0003333
 159.52   58.60  330.03   0.0003333
 160.73   72.67  358.68   0.0003333
 172.33  149.16  230.58   0.0003333
 104.89  113.40  123.93   0.0003333
  76.13  122.91  253.69   0.0003333
 161.49  114.00  290.14   0.0003333
  21.08  121.60  192.21   0.0003333
   8.62   85.37  296.72   0.0003333
 255.05   75.79  322.60   0.0003333
 285.94  105.41  151.49   0.0003333
 311.77  167.21   45.47   0.0003333
 126.02  123.63  195.77   0.0003333
 339.03   64.29  167.12   0.0003333
  22.97   46.75   96.04   0.0003333
 327.45   61.56  162.74   0.0003333
 161.08   85.56  338.76   0.0003333
  80.23  105.91  248.97   0.0003333
 197.12  103.53  335.06   0.0003333
   2.60  112.40  130.07   0.0003333
  79.19   74.61  195.47   0.0003333
  62.44  123.92   61.57   0.0003333
  47.47   39.10  225.86   0.0003333
 253.57   69.04   74.43   0.0003333
 318.56   55.17   20.93   0.0003333
 130.38  127.34  176.30   0.0003333
 166.54   79.70   92.39   0.0003333
 211.52  122.27   19.39   0.0003333
 272.04  124.99  325.99   0.0003333
 148.54   78.51  244.93   0.0003333
 253.41  132.83  335.18   0.0003333
  89.27   51.33  333.78   0.0003333
  13.48   44.09  267.86   0.0003333
 281.28   88.25   49.65   0.0003333
 114.11   93.56   49.96   0.0003333
 329.19    8.33  310.55   0.0003333
 211.65  121.01  311.70   0.0003333
 305.78   91.57  223.43   0.0003333
  46.59   96.67  284.44   0.0003333
 109.56   18.39   51.81   0.0003333
 160.64   72.58   22.41   0.0003333
  97.25   52.80   81.28   0.0003333
 295.67   92.45  266.30   0.0003333
  41.32   38.94  112.29   0.0003333
  73.19   83.13  117.19   0.0003333
 213.34  120.12  318.76   0.0003333
 183.85   61.96  236.04   0.0003333
 277.85   97.28   99.87   0.0003333
 237.92   54.10  119.28   0.0003333
 252.27   16.74  284.24   0.0003333
 246.86   61.72  196.09   0.0003333
 218.62   78.60   30.82   0.0003333
 160.92   65.16  309.79   0.0003333
  45.73   73.61  236.59   0.0003333
 187.12   72.81    1.42   0.0003333
  92.44   23.44  295.11   0.0003333
  57.58   88.20   31.41   0.0003333
 151.82  166.98  113.04   0.0003333
  21.13  131.09  291.05   0.0003333
 288.24  104.66  309.77   0.0003333
  84.81  102.52  198.41   0.0003333
 122.46   65.67  142.34   0.0003333
 196.09   94.02  115.98   0.0003333
 146.95  151.37  283.77   0.0003333
 295.99   96.39    5.23   0.0003333
 308.99   29.98  209.17   0.0003333
 199.52  120.26  296.38   0.0003333
  89.46   21.69   85.32   0.0003333
  28.71   23.47   45.37   0.0003333
 285.32   75.38  319.06   0.0003333
 149.96    6.50   36.45   0.0003333
  71.92  121.16  218.42   0.0003333
  82.47  146.44  193.11   0.0003333
 107.63   91.46  280.38   0.0003333
 273.89   42.79   51.44   0.0003333
 122.67   71.42  111.92   0.0003333
 263.17   30.43   93.08   0.0003333
  75.16  148.24  281.85   0.0003333
 326.32   22.88  305.78   0.0003333
 340.19   11.06  196.98   0.0003333
  55.33  113.53  282.15   0.0003333
  37.23   43.62  174.99   0.0003333
 281.09  131.55  141.66   0.0003333
  71.09  112.40  306.68   0.0003333
 218.80  134.18  140.80   0.0003333
 254.28   57.25  114.18   0.0003333
 156.05   41.39  285.57   0.0003333
 253.69   26.15  136.35   0.0003333
  14.59   73.80  217.38   0.0003333
 195.26  147.52  233.91   0.0003333
 181.58  122.78  270.66   0.0003333
 207.32   83.44  155.71   0.0003333
 340.61   35.72  214.85   0.0003333
 124.74  117.19   58.90   0.0003333
  33.63   80.81  281.62   0.0003333
 199.19  109.98  177.08   0.0003333
 247.53   52.17  233.05   0.0003333
 226.31  141.22  256.15   0.0003333
 158.95  109.66  252.24   0.0003333
 194.03  131.14  285.24   0.0003333
  73.96  159.39  155.23   0.0003333
 275.70   60.06   47.40   0.0003333
 252.41   80.66   92.75   0.0003333
 322.12  154.82  184.43   0.0003333
 141.67   55.23    3.81   0.0003333
 349.11   53.98   48.51   0.0003333
 221.61   13.89  246.32   0.0003333
 227.07   91.89  157.30   0.0003333
 120.69   58.42    3.28   0.0003333
 160.84  103.15   87.58   0.0003333
 151.79   54.95  187.39   0.0003333
  97.34   66.22  203.69   0.0003333
 257.43  112.09  153.30   0.0003333
  50.87   75.80   98.26   0.0003333
  40.67  142.46  141.75   0.0003333
  80.90  115.33  107.59   0.0003333
 259.89  101.70  359.03   0.0003333
 259.90  137.47  292.37   0.0003333
 160.94   50.85  136.10   0.0003333
 111.49  104.49   19.99   0.0003333
 114.55   88.05  196.05   0.0003333
 211.42   56.24  109.28   0.0003333
 133.63   55.80   38.02   0.0003333
 264.77  133.60  352.18   0.0003333
  72.76   59.59  302.91   0.0003333
 127.56  162.61  244.59   0.0003333
  48.21   85.32  302.37   0.0003333
 226.26  109.23  167.18   0.0003333
 164.67   69.75  112.04   0.0003333
 284.22  103.14  347.56   0.0003333
  61.51   29.92  264.32   0.0003333
  83.40   94.48  224.39   0.0003333
  75.25  107.34  244.66   0.0003333
  39.55  102.15  244.86   0.0003333
  40.43  102.96  114.37   0.0003333
 178.21   66.95  331.24   0.0003333
 176.32  132.70  318.09   0.0003333
 260.22  130.86   50.91   0.0003333
 118.22    8.52   45.56   0.0003333
 311.60   55.53   90.10   0.0003333
  52.58   86.00    0.87   0.0003333
 101.70   71.64  159.17   0.0003333
 232.72  131.95  354.41   0.0003333
 356.93   77.08   18.28   0.0003333
 279.01  115.48   35.39   0.0003333
 169.36   66.71  338.22   0.0003333
 232.51   90.08  170.57   0.0003333
 258.50   86.71  258.88   0.0003333
 283.49   13.67  359.89   0.0003333
 217.10  139.80  282.77   0.0003333
 168.53  136.20  236.53   0.0003333
  24.71  121.61  251.61   0.0003333
 149.53   54.12  141.41   0.0003333
 329.98   90.40  169.46   0.0003333
 211.96   57.83  282.46   0.0003333
  96.29  108.92  303.36   0.0003333
 313.96  106.48  300.51   0.0003333
 175.86   45.63  250.78   0.0003333
 285.43  138.40  234.08   0.0003333
  40.38  153.34  236.21   0.0003333
 305.70   51.89  202.95   0.0003333
  49.89   32.16   83.19   0.0003333
 179.23  113.58   93.55   0.0003333
 331.79  142.14   29.67   0.0003333
 124.99   66.06   51.71   0.0003333
   7.95   95.43  312.59   0.0003333
  17.39  107.51  243.28   0.0003333
 106.61  127.64  141.32   0.0003333
 349.52  152.31   76.88   0.0003333
  87.00   51.43    9.94   0.0003333
 100.36  116.16   35.65   0.0003333
 257.07   59.60   66.62   0.0003333
  35.32  100.76  155.43   0.0003333
 149.03   68.70  182.48   0.0003333
 102.48   82.94  350.13   0.0003333
 234.65   72.59   70.50   0.0003333
 331.59   85.50   43.32   0.0003333
 343.74  100.11   29.95   0.0003333
 248.22  153.41  301.74   0.0003333
 278.43  153.61   67.84   0.0003333
 199.36   85.46   31.71   0.0003333
 233.43   74.95  158.62   0.0003333
  28.99  109.06  249.53   0.0003333
 256.14   91.33  159.16   0.0003333
  25.21   45.33  279.99   0.0003333
 188.69  149.74  342.09   0.0003333
 280.14   86.99  298.95   0.0003333
  25.74  110.02  304.44   0.0003333
 238.08  108.41  339.16   0.0003333
 156.55   62.48  234.98   0.0003333
 321.91  131.78    7.92   0.0003333
 217.58   65.45  192.20   0.0003333
 178.67   46.87   84.65   0.0003333
 226.01  162.49  159.10   0.0003333
  71.28   83.13  354.86   0.0003333
 139.60   86.81  357.11   0.0003333
  21.66  102.09  261.12   0.0003333
  29.98  146.23  201.87   0.0003333
 210.90  116.57  110.44   0.0003333
  13.65  105.43  189.14   0.0003333
 217.27  126.47   44.86   0.0003333
 143.70  167.51  227.35   0.0003333
 193.58  122.73  220.40   0.0003333
  77.72   68.03  176.97   0.0003333
 318.84   22.08  228.41   0.0003333
 328.96   55.06    9.87   0.0003333
 310.37  108.78   98.70   0.0003333
  15.01  120.68  128.55   0.0003333
  65.82   87.98  255.69   0.0003333
 122.94   11.28  112.86   0.0003333
 126.46   49.90   48.06   0.0003333
 347.16   97.24  308.33   0.0003333
  13.20  105.14  277.78   0.0003333
 319.54   69.68  320.97   0.0003333
  89.90  146.62   28.43   0.0003333
  50.31   35.39  328.65   0.0003333
   1.65  150.73  124.87   0.0003333
 104.85  105.93   96.25   0.0003333
   5.04   87.83  314.29   0.0003333
  83.17  115.15  252.69   0.0003333
 253.31   63.70   25.02   0.0003333
 234.27   89.44   58.82   0.0003333
 312.54   69.23  166.33   0.0003333
 305.20  127.21  280.36   0.0003333
 299.03  111.51  145.77   0.0003333
 105.76  140.27   16.57   0.0003333
   4.80   23.75  329.99   0.0003333
 280.69   70.80  208.42   0.0003333
 308.82  111.31  245.31   0.0003333
  54.40   70.32  202.77   0.0003333
 198.90  134.95  198.81   0.0003333
  21.96  116.36  153.93   0.0003333
 304.64   71.41  346.16   0.0003333
 166.60   94.84   86.70   0.0003333
 288.40   64.42   10.27   0.0003333
 263.96  162.25  264.96   0.0003333
 156.64   98.58  252.00   0.0003333
 303.17   62.97   34.63   0.0003333
 100.72  139.34  220.26   0.0003333
 182.74   71.08  100.24   0.0003333
 209.68   87.50  335.35   0.0003333
  31.13   60.63   44.71   0.0003333
 151.39   69.67   75.35   0.0003333
 299.91   44.09   47.72   0.0003333
  55.89   93.15  327.43   0.0003333
  39.37   34.41   40.39   0.0003333
   8.36   28.95  199.63   0.0003333
 199.01   91.43  246.42   0.0003333
 238.94  146.11  264.98   0.0003333
  53.77   91.17  222.77   0.0003333
  21.69   91.80  269.72   0.0003333
 155.71  116.86  234.64   0.0003333
 356.35   35.13   71.82   0.0003333
   1.89   70.62   46.79   0.0003333
 274.12   41.51  303.95   0.0003333
 123.33  141.48  281.75   0.0003333
 184.84   83.44  135.21   0.0003333
  72.30   96.10  198.56   0.0003333
 305.73   22.32  144.91   0.0003333
 151.41   81.78  128.81   0.0003333
 111.96   31.98  279.42   0.0003333
 176.37   74.03  199.05   0.0003333
 155.95  163.95  341.41   0.0003333
 346.38   94.14  112.94   0.0003333
 336.69  155.76  336.75   0.0003333
  74.68   17.23   13.62   0.0003333
 252.87   44.43  176.76   0.0003333
  92.15   62.97  256.04   0.0003333
 159.95  160.35   64.21   0.0003333
 129.77  122.94  106.15   0.0003333
 146.41   77.78   76.65   0.0003333
 342.50   46.78  324.26   0.0003333
 348.93  110.93   28.61   0.0003333
  74.62  147.89  277.46   0.0003333
 176.64   18.29  220.24   0.0003333
 131.64  152.11  245.99   0.0003333
 220.96  161.31  245.82   0.0003333
  55.24  114.81  299.56   0.0003333
  77.03   73.74   29.73   0.0003333
 201.14   93.68  285.70   0.0003333
 164.27   96.57  151.16   0.0003333
 138.15   35.78  332.68   0.0003333
 169.68  129.78  120.23   0.0003333
  47.45   75.49   57.02   0.0003333
 326.13  145.53  328.19   0.0003333
 339.77  132.75   43.59   0.0003333
   2.45   79.29  138.86   0.0003333
 120.54  143.91  271.93   0.0003333
  97.04   58.44  152.60   0.0003333
  52.60   17.56  321.64   0.0003333
 161.29  133.78  182.91   0.0003333
 338.50   40.46  234.01   0.0003333
 172.29   40.35  161.11   0.0003333
 177.19   43.96  196.73   0.0003333
 159.01   43.03  225.81   0.0003333
 287.16   37.73  160.22   0.0003333
 223.38   12.41  213.93   0.0003333
 297.85   53.69   95.80   0.0003333
  88.66   50.53  105.52   0.0003333
 211.26  159.29  142.24   0.0003333
 109.08  132.35  275.23   0.0003333
  30.63   95.53  296.04   0.0003333
 206.96   57.53  288.16   0.0003333
 254.33  123.99  114.90   0.0003333
 200.56   72.43  232.25   0.0003333
 262.63  114.61  178.76   0.0003333
 356.05  109.80   45.66   0.0003333
 290.30   76.58   71.89   0.0003333
  15.48   94.72   25.53   0.0003333
  15.26   55.82  138.22   0.0003333
 275.29   82.19   50.06   0.0003333
   3.28  106.18  253.87   0.0003333
 209.56   48.53  289.64   0.0003333
 196.41  114.67  234.75   0.0003333
 315.29  129.83  268.19   0.0003333
 354.22   99.20  257.47   0.0003333
 249.92  123.77   25.92   0.0003333
 353.28   58.80   62.08   0.0003333
 324.95  119.92   49.86   0.0003333
  46.01   71.79  190.42   0.0003333
 312.83  117.48  197.15   0.0003333
 334.21  115.18  313.73   0.0003333
 143.46   83.56  238.50   0.0003333
 198.74  132.82  127.07   0.0003333
 211.72  165.31  171.61   0.0003333
 265.90  103.24  293.00   0.0003333
 300.38   49.69   43.04   0.0003333
 127.54   29.33  159.98   0.0003333
   5.43   68.20  193.50   0.0003333
 273.05   57.31  312.67   0.0003333
  79.65  109.21  283.03   0.0003333
 211.86  133.51  148.50   0.0003333
 310.32   61.96  254.64   0.0003333
 240.00  143.04  235.12   0.0003333
 162.56  120.77   57.68   0.0003333
 102.16   39.89  287.48   0.0003333
  17.18   24.67  194.03   0.0003333
 349.72   90.81  221.52   0.0003333
 233.57   99.26  136.44   0.0003333
 312.59   26.12  145.85   0.0003333
 175.83   74.73  145.23   0.0003333
  32.73   86.85  339.34   0.0003333
   1.22  139.19  275.38   0.0003333
 354.80   63.86   23.46   0.0003333
 263.32   57.42  277.94   0.0003333
 193.31   59.89  291.64   0.0003333
 355.14  164.54  113.17   0.0003333
 180.56   45.82  210.90   0.0003333
  17.90   36.42  352.59   0.0003333
 219.77  110.61  113.96   0.0003333
 349.73   23.25  234.00   0.0003333
 239.44   89.48  307.79   0.0003333
 163.99   68.09  116.97   0.0003333
 222.07  157.86  331.59   0.0003333
 221.39   60.08  215.30   0.0003333
 209.73   68.46   36.14   0.0003333
 186.84   48.21   13.45   0.0003333
 211.40   85.37  170.10   0.0003333
 329.09  146.69  193.52   0.0003333
 159.13  154.42  163.54   0.0003333
 128.24   64.14    8.27   0.0003333
 266.59  129.07  276.16   0.0003333
 303.61   38.17   46.00   0.0003333
 314.94  125.49  167.89   0.0003333
   6.85  162.69   44.10   0.0003333
 268.60  147.30  182.53   0.0003333
 239.20  147.32  122.94   0.0003333
   7.18   88.38  308.25   0.0003333
 210.72  156.22  215.77   0.0003333
 287.67   54.46  233.44   0.0003333
  65.38  117.14   63.98   0.0003333
 107.32  144.02  117.57   0.0003333
  12.63  125.38   55.28   0.0003333
 242.89  114.48  222.15   0.0003333
  11.61   77.27   43.41   0.0003333
 256.37  144.32   93.36   0.0003333
 246.38  138.19  179.85   0.0003333
 139.74   94.55  331.41   0.0003333
 262.65   93.13  358.72   0.0003333
 207.05   76.81  169.71   0.0003333
  47.08  153.69  143.40   0.0003333
 102.55  163.12  289.72   0.0003333
  27.50  140.99  119.20   0.0003333
 320.16   96.35  176.36   0.0003333
 133.37  102.13   63.43   0.0003333
 220.22   55.38   20.55   0.0003333
 132.03   24.56  351.71   0.0003333
  52.25   52.31  327.53   0.0003333
 222.14   93.82  140.24   0.0003333
 301.57  145.31  330.57   0.0003333
 239.60   80.32  225.79   0.0003333
 160.19   66.17  188.91   0.0003333
 183.59  119.03  213.24   0.0003333
 343.34   48.41  105.80   0.0003333
 349.17  112.90  320.25   0.0003333
 335.84  170.98  194.93   0.0003333
 285.02   74.08   44.74   0.0003333
 177.94   50.95  127.00   0.0003333
   4.92   71.18  301.83   0.0003333
 266.48   70.72  243.62   0.0003333
 157.64   23.32  162.06   0.0003333
 139.67   94.05  260.41   0.0003333
 148.76   97.66   89.28   0.0003333
  44.52   39.80   62.24   0.0003333
 168.92   88.98  319.99   0.0003333
 116.69  129.05  204.45   0.0003333
 130.55   74.66    9.90   0.0003333
  60.03   42.28  134.87   0.0003333
 305.39   93.81  253.02   0.0003333
  44.56   25.56   10.90   0.0003333
 347.91   32.43  156.39   0.0003333
 194.42   82.73  278.08   0.0003333
  16.82  124.29  299.75   0.0003333
 346.61  132.28  206.13   0.0003333
 246.45  112.69  145.08   0.0003333
  15.13   97.51  245.85   0.0003333
 340.43  129.78   36.53   0.0003333
 322.47   96.25  197.68   0.0003333
 349.26   54.81   54.55   0.0003333
  60.97   62.34  331.40   0.0003333
 262.86   86.64  217.44   0.0003333
 219.48  107.36   34.09   0.0003333
 358.19   50.35   55.84   0.0003333
 333.15  127.14  222.65   0.0003333
  61.97   46.47   37.53   0.0003333
 152.41   13.66  147.28   0.0003333
 114.78  119.93  163.47   0.0003333
 177.04   75.24  321.36   0.0003333
 271.59   92.37  356.24   0.0003333
 297.20   66.97   60.25   0.0003333
 136.15   64.99  206.73   0.0003333
  24.63   86.66  233.02   0.0003333
  83.65  104.68  213.68   0.0003333
 147.58  125.69  116.50   0.0003333
 220.91  102.52  207.10   0.0003333
 349.92  131.14   80.34   0.0003333
 308.22   80.73   21.06   0.0003333
 318.56   63.48  224.71   0.0003333
 278.33   35.32  206.15   0.0003333
 120.41   61.40  108.66   0.0003333
 357.21  132.41  297.48   0.0003333
 169.47   59.61   75.73   0.0003333
 232.29   74.28  108.18   0.0003333
  36.10   78.50  328.89   0.0003333
 109.07  108.33  143.88   0.0003333
 174.04   82.70  264.34   0.0003333
 207.97   61.08  131.78   0.0003333
  94.51   97.81  197.59   0.0003333
 310.62   21.75  140.97   0.0003333
 231.60  147.41  256.89   0.0003333
 214.69   71.27  312.04   0.0003333
   8.89  125.67  183.59   0.0003333
 112.20   60.89    7.80   0.0003333
 163.51   89.80    0.93   0.0003333
 145.91   30.35   49.88   0.0003333
 262.22  102.69  249.26   0.0003333
  56.06   61.16  331.12   0.0003333
 221.84   59.31  253.35   0.0003333
  76.90   40.71   37.34   0.0003333
  74.79  137.52  270.98   0.0003333
 247.50   54.90   46.49   0.0003333
 321.77   96.26  335.48   0.0003333
 200.92   17.22  235.48   0.0003333
 296.29  123.58   12.11   0.0003333
 127.26   78.55   45.44   0.0003333
 223.76  104.28  146.43   0.0003333
  90.02  161.28  166.04   0.0003333
 350.16   76.00  202.35   0.0003333
 288.92  113.18  152.43   0.0003333
 216.84   95.47  106.64   0.0003333
  76.46   96.49  131.05   0.0003333
 250.49  120.83   70.27   0.0003333
 286.57   48.35  263.60   0.0003333
  69.04   73.21  249.47   0.0003333
 296.34   12.93  357.41   0.0003333
 156.01   11.97  113.78   0.0003333
  60.34   80.04  133.49   0.0003333
 270.50  110.67  255.92   0.0003333
 170.21   71.89  311.66   0.0003333
 154.05  120.77   16.80   0.0003333
 288.95   79.61   72.99   0.0003333
 127.66   25.34   87.94   0.0003333
 142.94   26.31   32.01   0.0003333
  84.37   22.21  354.63   0.0003333
 230.79   86.10  254.63   0.0003333
 131.49   92.72  136.53   0.0003333
 140.65  145.76   46.92   0.0003333
 177.72   57.55  216.32   0.0003333
 113.33  103.48   38.67   0.0003333
 194.53   81.34   29.33   0.0003333
 124.50   56.82  182.75   0.0003333
 118.85  134.91  276.61   0.0003333
 115.89  153.06   49.70   0.0003333
 297.97   40.22  217.70   0.0003333
 150.00   51.35   10.17   0.0003333
  46.53   38.58  115.94   0.0003333
 205.86   84.78  163.68   0.0003333
  64.33   53.44   44.79   0.0003333
 129.38  115.68  334.43   0.0003333
  55.26  108.64  312.27   0.0003333
 197.87  102.75  150.58   0.0003333
 113.03  108.26  271.89   0.0003333
 139.48  163.61   69.44   0.0003333
   4.33   98.78  171.23   0.0003333
  89.92   47.88  269.25   0.0003333
 199.23   51.61  282.97   0.0003333
 126.65  102.56   11.50   0.0003333
 134.56   82.86  227.33   0.0003333
 252.06   23.98  296.24   0.0003333
 338.93   24.28    9.58   0.0003333
 136.46   29.43  239.93   0.0003333
  73.24   35.25   92.23   0.0003333
 218.18  112.83  216.37   0.0003333
 264.70  135.12   61.62   0.0003333
  39.78  123.01  317.28   0.0003333
  34.49  156.36   58.34   0.0003333
  12.61   76.43  159.50   0.0003333
  54.72   80.92  152.20   0.0003333
 273.12  118.58  331.28   0.0003333
 110.11   90.29   83.11   0.0003333
 105.91  168.77   23.66   0.0003333
   6.66  139.25  206.34   0.0003333
  79.30   70.11  151.57   0.0003333
 328.10  127.73   83.42   0.0003333
 116.57  115.84   67.70   0.0003333
  81.01   25.82  120.84   0.0003333
 221.80  106.43  117.44   0.0003333
 116.70  116.22  345.00   0.0003333
 194.63   67.32  201.28   0.0003333
 118.72   96.56  125.10   0.0003333
  39.12   38.45   48.66   0.0003333
 210.61  110.45  291.26   0.0003333
 318.99  104.53  310.93   0.0003333
 143.48  123.43   45.38   0.0003333
  12.75  108.35  292.57   0.0003333
  91.86    8.89  225.75   0.0003333
 150.02  145.57   17.37   0.0003333
 188.69   59.97   87.17   0.0003333
  72.06  118.47  107.58   0.0003333
 261.57   39.19   56.07   0.0003333
  20.94   89.40  299.37   0.0003333
 207.77   86.70   18.67   0.0003333
 331.14   94.14   78.71   0.0003333
  27.95  150.29   31.21   0.0003333
 302.77  151.14  151.90   0.0003333
 242.77  146.24    4.96   0.0003333
 112.01  127.15  347.90   0.0003333
  27.31   88.93  311.30   0.0003333
  25.58   77.27  334.44   0.0003333
 218.13   40.31  170.35   0.0003333
 257.58   71.91  136.68   0.0003333
 114.34  118.57  297.03   0.0003333
  67.89   92.34   91.61   0.0003333
 135.56   21.27  156.95   0.0003333
 181.15  157.72  219.55   0.0003333
 154.60   30.15  229.38   0.0003333
 122.02   87.39   95.17   0.0003333
 282.86   75.23  240.35   0.0003333
  97.60  133.72  249.14   0.0003333
 237.04   41.33   48.42   0.0003333
 140.63  153.08   21.71   0.0003333
 265.66   30.97  204.11   0.0003333
  44.15  127.53   17.31   0.0003333
 255.39   94.78  155.66   0.0003333
 224.00   84.69  258.06   0.0003333
  33.25   61.56  187.21   0.0003333
 167.96   54.46  291.61   0.0003333
 185.34   61.81   38.32   0.0003333
 158.80   79.18   32.75   0.0003333
  83.14   88.22  112.12   0.0003333
  21.28  114.91  261.85   0.0003333
 210.24  169.40  160.39   0.0003333
 116.82   46.52  322.44   0.0003333
 243.16   87.06  262.72   0.0003333
  22.87   87.63  225.54   0.0003333
 112.86   81.25  301.85   0.0003333
 341.65   91.45  305.33   0.0003333
  53.85  171.32  228.11   0.0003333
 251.51   33.15  325.22   0.0003333
 209.70   13.50   86.44   0.0003333
 131.98   13.33   66.16   0.0003333
 174.37  154.21  189.29   0.0003333
 100.88   55.35   37.30   0.0003333
  81.90  148.37   72.20   0.0003333
 228.93   80.51  281.50   0.0003333
 144.61   73.65  337.22   0.0003333
 155.12   13.25   53.01   0.0003333
 202.00   28.59   52.44   0.0003333
   5.18  165.73  218.96   0.0003333
 171.88   93.07   98.29   0.0003333
 300.26   37.22  239.21   0.0003333
 200.83   44.55  219.93   0.0003333
 295.37   59.43  188.78   0.0003333
 138.89  137.48  241.54   0.0003333
  81.64  113.96  297.26   0.0003333
 168.21   70.13   56.69   0.0003333
 349.29  142.47   20.46   0.0003333
  45.54   56.13   89.35   0.0003333
 306.57   45.55  166.43   0.0003333
 283.96  125.19  146.37   0.0003333
 315.87   51.05  213.72   0.0003333
  82.92  102.14   32.28   0.0003333
 354.19  118.73    4.05   0.0003333
 182.62  101.39   86.39   0.0003333
  69.64  109.61  329.98   0.0003333
 136.52  147.90  323.74   0.0003333
 257.00  102.39   61.58   0.0003333
 225.97   57.53  323.52   0.0003333
 207.92  153.17   38.99   0.0003333
 204.56  106.33  101.07   0.0003333
 322.29  114.74  315.91   0.0003333
  39.94   36.09  290.64   0.0003333
 290.20   73.15  356.82   0.0003333
  12.24   90.44   57.33   0.0003333
 222.67  117.85   21.24   0.0003333
 130.10   62.24   73.18   0.0003333
  50.57   26.03  300.87   0.0003333
  46.22   21.34   93.94   0.0003333
  12.96   48.94  333.60   0.0003333
 144.67  128.33  166.87   0.0003333
 170.36  124.68  173.28   0.0003333
 320.44   94.62   49.39   0.0003333
  35.99   41.47  115.32   0.0003333
 323.01   76.48  141.96   0.0003333
 186.75   30.10   44.15   0.0003333
 278.00   34.81   72.22   0.0003333
 250.09   18.04  134.23   0.0003333
  14.45   66.66    7.80   0.0003333
 264.30  120.54  194.61   0.0003333
 292.08   69.46   73.31   0.0003333
 203.32   34.90  141.41   0.0003333
 355.18  159.51  134.67   0.0003333
 357.68   70.76  209.28   0.0003333
 140.29  140.68  330.18   0.0003333
 252.62  146.56  132.88   0.0003333
  77.32  158.17  329.47   0.0003333
 179.80   81.72  341.48   0.0003333
  20.03   47.22  276.32   0.0003333
  12.78   57.54   13.31   0.0003333
 176.15    2.24  135.46   0.0003333
 106.14   77.87   23.53   0.0003333
  23.33  105.40  355.49   0.0003333
 252.06  165.06    5.88   0.0003333
 293.62   58.05  259.53   0.0003333
 281.86   68.99  258.11   0.0003333
  65.07   98.16    7.23   0.0003333
 188.77   48.13  192.07   0.0003333
  99.52   94.90  267.90   0.0003333
 148.65   79.79   61.26   0.0003333
 353.02  128.55   15.13   0.0003333
  88.86   93.19  161.78   0.0003333
 134.21   33.18   17.71   0.0003333
 302.59   43.37   76.59   0.0003333
 316.95   87.50  123.08   0.0003333
  87.15   86.68  307.22   0.0003333
  70.86  111.05  149.15   0.0003333
  96.64   68.69   40.27   0.0003333
 158.69  128.45  342.10   0.0003333
 214.65   86.82   61.28   0.0003333
 287.68  103.53   32.48   0.0003333
 167.05  148.41    3.56   0.0003333
 150.01  131.89   24.82   0.0003333
 331.98   43.26  101.05   0.0003333
  45.55   63.16  125.99   0.0003333
 252.85   81.49  230.54   0.0003333
  19.64   41.38   98.58   0.0003333
 137.41   87.98  143.08   0.0003333
 343.36   33.04  247.54   0.0003333
 326.63  105.04   78.56   0.0003333
  64.42  110.38  314.92   0.0003333
  42.23  161.32  246.06   0.0003333
 313.17  107.67  177.50   0.0003333
 125.15  141.75   74.20   0.0003333
  98.93   95.71  111.17   0.0003333
 337.63  137.21   73.20   0.0003333
 114.49   59.94   85.40   0.0003333
 225.21   84.05  226.23   0.0003333
 230.40   77.68   34.97   0.0003333
 250.43   66.39  152.68   0.0003333
 154.83   57.79  115.73   0.0003333
 100.64   84.73  141.07   0.0003333
 295.22   25.24  184.85   0.0003333
 218.45   77.13  120.23   0.0003333
 230.80   15.02  138.61   0.0003333
   2.06   75.60   24.43   0.0003333
 151.45  127.68    3.30   0.0003333
 321.95   89.33  138.11   0.0003333
  56.14   92.32  150.67   0.0003333
 111.80   65.10   43.20   0.0003333
 165.92  112.37  334.65   0.0003333
 348.44   63.12   56.43   0.0003333
 307.73   96.77  156.63   0.0003333
 321.02  110.04   83.11   0.0003333
 121.99   84.59    2.62   0.0003333
 134.95  135.79  186.62   0.0003333
 276.94  145.97  286.37   0.0003333
 284.36   75.40  355.62   0.0003333
  21.30   91.97  260.40   0.0003333
  22.37   85.70   69.09   0.0003333
  39.18   47.31  339.15   0.0003333
 273.22  136.35  141.08   0.0003333
 344.62   78.99  161.71   0.0003333
 204.93  102.35  278.97   0.0003333
 258.25  106.78  139.29   0.0003333
 269.12  150.78   23.67   0.0003333
  61.56   29.18  224.28   0.0003333
 204.10   78.01   46.59   0.0003333
 233.34   79.43    5.07   0.0003333
 349.03   97.03  314.66   0.0003333
 357.22  147.26  156.39   0.0003333
 289.23   79.36  119.35   0.0003333
 199.36   39.27  178.55   0.0003333
 166.07  173.83  176.25   0.0003333
 334.28  114.32   32.51   0.0003333
  77.63   93.96  353.06   0.0003333
 112.27  139.38   60.33   0.0003333
 336.42   59.90  346.22   0.0003333
 350.23   21.49  254.35   0.0003333
 212.21  137.18  171.60   0.0003333
 347.63   40.58  110.73   0.0003333
 220.50  130.74  206.70   0.0003333
 288.45  115.12   42.22   0.0003333
 337.94   45.36  192.83   0.0003333
  28.11   94.29  256.99   0.0003333
 162.10  173.89  161.94   0.0003333
  87.16  115.96  156.47   0.0003333
  78.20  106.48  111.12   0.0003333
 219.42  118.69  145.78   0.0003333
  14.07   95.35  143.62   0.0003333
 271.26   98.22  165.56   0.0003333
 300.77  148.46  239.15   0.0003333
 215.46   33.54  209.84   0.0003333
 285.56  127.23  147.31   0.0003333
  22.08  142.52   41.94   0.0003333
 180.22  110.31    8.05   0.0003333
 191.94   77.60   11.28   0.0003333
 256.39   26.27  255.20   0.0003333
  31.17   90.90  160.95   0.0003333
 346.35   66.54  257.73   0.0003333
 247.90  121.26   23.68   0.0003333
 268.33  123.50  304.84   0.0003333
 337.48   38.28   42.25   0.0003333
 247.36  153.36    2.04   0.0003333
 154.99   96.50   35.47   0.0003333
 330.46   45.79  201.85   0.0003333
 113.02  168.15    0.28   0.0003333
 158.42   87.00  181.12   0.0003333
  94.49   94.19  149.63   0.0003333
   3.16   64.85  310.21   0.0003333
 178.21  129.60  356.52   0.0003333
 207.02  138.43  148.90   0.0003333
 241.06  104.09   12.72   0.0003333
 185.11  168.18  199.55   0.0003333
 280.46  123.74  309.01   0.0003333
 309.16   26.52  334.34   0.0003333
 105.61   88.34   68.94   0.0003333
 234.74  141.78  304.27   0.0003333
 145.90   99.16  299.93   0.0003333
 278.21  104.84  245.25   0.0003333
 303.08   44.65   99.40   0.0003333
  17.96   60.18  279.15   0.0003333
 253.66   63.98   23.59   0.0003333
   8.53  137.52  304.01   0.0003333
 265.42  127.17   93.16   0.0003333
  33.13   88.67   51.73   0.0003333
 292.68   18.71  254.19   0.0003333
 319.11   93.11   94.85   0.0003333
 101.84   55.61   49.97   0.0003333
  77.40   52.64   16.76   0.0003333
 179.91   15.29   43.67   0.0003333
   7.31  108.14   75.50   0.0003333
 237.30   47.89  248.99   0.0003333
 191.85  116.79  270.23   0.0003333
 344.60   71.63  259.32   0.0003333
 250.32  131.33  185.73   0.0003333
 168.30  114.25    0.31   0.0003333
 106.78  105.00  188.22   0.0003333
 151.47   72.67  231.04   0.0003333
 322.63   97.79   45.94   0.0003333
 217.24   91.40  324.37   0.0003333
 352.15   28.46   58.33   0.0003333
  99.40  123.76   56.51   0.0003333
 350.22   19.95   63.60   0.0003333
 294.86  111.15  146.54   0.0003333
 139.40   38.23  253.45   0.0003333
 254.28  104.95  270.22   0.0003333
 143.07  104.31  201.33   0.0003333
 271.84   67.33  228.33   0.0003333
  48.84   55.25  226.32   0.0003333
  42.26   74.64  300.03   0.0003333
  34.34   67.63  302.08   0.0003333
 278.09  127.25  278.78   0.0003333
 197.98   75.62  241.23   0.0003333
  59.51  154.72  261.94   0.0003333
 168.95   37.44  142.01   0.0003333
 243.95   94.65  114.57   0.0003333
 165.89   45.68  252.23   0.0003333
  80.41   93.72  285.32   0.0003333
 357.07  144.81  222.44   0.0003333
  22.14   34.85  261.67   0.0003333
 271.96   43.29  114.74   0.0003333
 348.51   44.36  315.08   0.0003333
 140.82   40.02   12.36   0.0003333
 234.65  148.35  154.31   0.0003333
 198.68   71.60   34.50   0.0003333
 321.48  122.93  178.32   0.0003333
 139.79  133.54  349.26   0.0003333
 177.16   42.96  289.10   0.0003333
 318.17  139.69  183.17   0.0003333
 123.57  127.78  342.13   0.0003333
 254.94   46.11  319.32   0.0003333
  41.35   54.26  107.14   0.0003333
 126.01  109.94  211.04   0.0003333
 339.51  124.55  169.93   0.0003333
 354.29  150.52  193.09   0.0003333
 144.94   81.85  315.00   0.0003333
 191.31   66.81  225.49   0.0003333
  31.26   80.15  111.50   0.0003333
 129.72  120.56  330.46   0.0003333
  39.46   61.31   54.74   0.0003333
 143.79  123.64  111.61   0.0003333
  85.63    2.34   99.67   0.0003333
 314.36  173.80  255.92   0.0003333
 297.35  148.36  231.31   0.0003333
 325.50  157.02  313.87   0.0003333
  53.39   94.25   93.84   0.0003333
 150.28  128.08  114.08   0.0003333
 118.66   47.72  326.06   0.0003333
 176.21  113.23    6.39   0.0003333
 136.44   70.28  116.28   0.0003333
 354.74  124.67  233.45   0.0003333
  42.03   92.53  320.18   0.0003333
 146.86   53.73  221.22   0.0003333
 224.82   81.02  279.36   0.0003333
  38.49   91.76    3.77   0.0003333
 109.90   77.16  160.82   0.0003333
  32.71   99.23  344.81   0.0003333
 278.23   89.19   83.12   0.0003333
 167.24   83.23  253.19   0.0003333
 335.68  135.17  145.33   0.0003333
 309.32  112.51   58.77   0.0003333
 148.15   24.59   47.90   0.0003333
 304.90  143.33   14.08   0.0003333
  13.69   60.56  293.26   0.0003333
  74.08   83.60  114.42   0.0003333
 359.29  103.09  298.40   0.0003333
  58.83   50.18  183.77   0.0003333
 188.01   84.43   38.20   0.0003333
  77.26   18.66  295.98   0.0003333
 107.02   47.54  101.14   0.0003333
  33.31  157.15   37.00   0.0003333
 123.86  131.48  197.86   0.0003333
 144.57   78.73  339.11   0.0003333
 280.69   89.63  107.23   0.0003333
  78.72   72.22  100.21   0.0003333
 228.04   66.91  272.27   0.0003333
  76.56  124.02   92.62   0.0003333
 181.18  139.19   23.04   0.0003333
 217.29  122.68  231.64   0.0003333
 159.18  126.92  256.14   0.0003333
  31.36   59.57  190.21   0.0003333
  81.20   15.28  261.09   0.0003333
 331.78  141.06  269.55   0.0003333
  72.28   64.30  179.66   0.0003333
 289.25  109.47  329.66   0.0003333
  64.54   49.91  286.37   0.0003333
 257.45   73.10  264.03   0.0003333
 164.81  102.73  357.83   0.0003333
 186.13   80.20  296.86   0.0003333
 333.46   52.35  273.38   0.0003333
 176.59  130.82   30.47   0.0003333
  67.52   33.31  324.68   0.0003333
  37.74  106.91  242.82   0.0003333
 158.69   30.26   63.50   0.0003333
  46.37  127.38   98.36   0.0003333
 300.37   90.41   46.56   0.0003333
 289.76  102.38   72.94   0.0003333
  50.80   35.84  143.11   0.0003333
  15.92   59.12  172.94   0.0003333
 312.86  122.29  302.00   0.0003333
 159.22   14.56  168.56   0.0003333
 164.96   95.74  261.77   0.0003333
 274.70  113.02  327.80   0.0003333
 246.31  114.32  147.34   0.0003333
 251.20   94.59  138.36   0.0003333
  44.62  143.56   12.50   0.0003333
  54.48   72.63  231.98   0.0003333
 252.72   75.23  225.81   0.0003333
 144.40  134.59  168.44   0.0003333
 269.72   53.43  259.79   0.0003333
 105.96   71.01  258.08   0.0003333
  11.85   70.06  176.48   0.0003333
 238.88   63.95   23.90   0.0003333
   6.90  100.19  356.86   0.0003333
 180.45  135.00  169.18   0.0003333
   0.19   66.99  202.43   0.0003333
 330.31   58.71  120.74   0.0003333
 160.51   95.42  189.51   0.0003333
 303.60  123.75  145.21   0.0003333
  15.24  125.04  129.34   0.0003333
 125.84   27.42  353.40   0.0003333
 181.13  140.78    8.21   0.0003333
 212.25  137.15  178.73   0.0003333
  99.78   45.62  218.43   0.0003333
 316.25   65.81  328.71   0.0003333
 282.45  122.23   12.30   0.0003333
 232.53   87.39  340.84   0.0003333
 321.40   51.84   21.58   0.0003333
 154.16  145.89  322.06   0.0003333
 269.60   68.39  173.81   0.0003333
  83.49   38.51   79.81   0.0003333
 290.42   83.02  160.62   0.0003333
 350.23   94.34  130.77   0.0003333
  57.05   25.62  142.83   0.0003333
  66.13   95.90   64.58   0.0003333
 337.43  100.54  359.30   0.0003333
 188.46   63.29  263.72   0.0003333
 327.87   80.61  296.40   0.0003333
 122.53   89.90   37.21   0.0003333
 329.88   76.92  258.50   0.0003333
 208.79   47.42  272.50   0.0003333
 122.99  142.45  187.34   0.0003333
 308.40   88.48   66.27   0.0003333
 306.52  119.90  257.39   0.0003333
 140.78   45.90  107.26   0.0003333
  46.15  104.18  163.11   0.0003333
 323.70  135.84  324.52   0.0003333
  90.35   38.60  243.23   0.0003333
 358.66  133.30  109.81   0.0003333
  49.42  101.15  108.30   0.0003333
  91.59  132.03   36.47   0.0003333
 136.73  128.33   35.21   0.0003333
 346.75  126.53   65.89   0.0003333
 278.82  139.18  302.40   0.0003333
 350.65   78.63  217.01   0.0003333
  10.77   47.49   96.46   0.0003333
 262.28  104.60  202.36   0.0003333
  14.53   54.13   48.99   0.0003333
 323.84   75.69  121.72   0.0003333
 271.97   65.32  266.32   0.0003333
 119.50   19.53  284.76   0.0003333
  21.59   64.29  327.18   0.0003333
 203.65   75.84  195.22   0.0003333
 215.45  142.51  208.62   0.0003333
  23.74   74.91  264.05   0.0003333
 351.99   90.13  229.18   0.0003333
 122.69  110.65  278.83   0.0003333
 292.22   37.72  126.08   0.0003333
 287.31   66.17  180.54   0.0003333
 281.61   40.63  200.42   0.0003333
  76.39    8.07  197.31   0.0003333
 270.18  152.60  347.06   0.0003333
  76.84   54.92  169.76   0.0003333
  19.29  104.10  285.59   0.0003333
 189.26   25.65  277.44   0.0003333
 109.74  141.06   97.10   0.0003333
 120.18  138.92  158.30   0.0003333
  28.65   57.58  229.59   0.0003333
 324.33  111.72   36.77   0.0003333
 144.00  116.01  293.35   0.0003333
 314.88   77.73  137.37   0.0003333
 261.08   43.20    1.39   0.0003333
  84.34   82.21  133.66   0.0003333
 155.90   72.10  350.91   0.0003333
 234.17   69.11   29.03   0.0003333
 280.94   71.23   44.56   0.0003333
 222.39   69.92  130.09   0.0003333
 255.07  124.82  205.34   0.0003333
 207.49  104.86   97.04   0.0003333
  45.95   96.77  254.40   0.0003333
 239.36   86.22   18.28   0.0003333
 259.90  118.07  284.59   0.0003333
 190.01  141.29  193.09   0.0003333
  95.79  154.05  186.23   0.0003333
 346.16   95.84  212.92   0.0003333
   8.85   37.73  143.12   0.0003333
 106.47  145.33  192.14   0.0003333
 102.32   47.12  270.66   0.0003333
 214.99   99.71  144.31   0.0003333
  77.17   83.91  117.05   0.0003333
  16.73   18.77  322.03   0.0003333
  22.39   56.34   51.50   0.0003333
 284.12   24.23   15.58   0.0003333
 279.19  121.74  235.08   0.0003333
 355.46  150.76  201.60   0.0003333
 160.25   57.21  311.64   0.0003333
 263.84   55.75  211.94   0.0003333
 344.85   21.62  122.03   0.0003333
  46.72  123.41  104.89   0.0003333
 240.58   39.68  104.03   0.0003333
 316.83  153.34  298.61   0.0003333
  14.05   51.27  250.19   0.0003333
 157.43  103.99   50.58   0.0003333
 321.82   43.52  215.14   0.0003333
  80.90  112.48  343.64   0.0003333
 211.55   49.00  133.74   0.0003333
 257.56  116.63  258.99   0.0003333
 245.10   80.08  117.11   0.0003333
 335.78   84.98  330.04   0.0003333
 354.70   84.70   76.35   0.0003333
 259.33  139.76  184.99   0.0003333
 294.24    2.71   88.95   0.0003333
 301.12   36.05   68.67   0.0003333
 115.02   46.97  260.63   0.0003333
 109.12   46.20  236.87   0.0003333
 293.06   92.67   51.80   0.0003333
   9.43  111.59  269.27   0.0003333
 121.45   41.70   84.12   0.0003333
 356.14  110.17   82.02   0.0003333
  36.96   33.88  284.28   0.0003333
  28.40   71.63  121.92   0.0003333
  54.67  126.28   84.49   0.0003333
 331.04   81.42  219.38   0.0003333
 261.71   85.15  206.95   0.0003333
 232.48   75.80  120.30   0.0003333
 254.80   34.14   63.10   0.0003333
 177.14   99.29  327.67   0.0003333
 285.10  106.41  302.65   0.0003333
 238.54  138.42  324.13   0.0003333
  36.64   68.47  115.34   0.0003333
 277.16   48.49  318.54   0.0003333
 106.05   44.76   96.20   0.0003333
  58.07   78.34    5.10   0.0003333
  92.31   52.68  302.96   0.0003333
 349.42   63.24  282.12   0.0003333
 253.48  113.73  299.65   0.0003333
 325.90   28.75  278.47   0.0003333
 238.08   51.52    1.95   0.0003333
 169.67   36.07  176.42   0.0003333
 337.44   32.12  135.64   0.0003333
  48.87   63.29  154.36   0.0003333
 282.69  104.58  232.27   0.0003333
 239.10   66.15   52.20   0.0003333
  83.22   50.70   77.46   0.0003333
 243.28  151.66   16.75   0.0003333
 132.65  123.01  223.44   0.0003333
  74.96  101.70  291.34   0.0003333
 148.75  161.22  220.72   0.0003333
  88.44   55.83  209.23   0.0003333
 317.60  113.70  331.70   0.0003333
 250.12  106.94  355.59   0.0003333
 244.83  134.29  210.36   0.0003333
 191.15   83.86  346.06   0.0003333
 232.81   45.75  289.32   0.0003333
 200.26  143.54  143.28   0.0003333
 265.65   98.78  189.53   0.0003333
 354.42  117.15    0.07   0.0003333
  72.95  114.21  288.64   0.0003333
 268.18   69.07   12.47   0.0003333
  28.59  123.73    3.42   0.0003333
 161.62   77.94   87.50   0.0003333
  34.16  161.76  209.31   0.0003333
 149.43  156.79  160.89   0.0003333
 176.38   93.11  300.73   0.0003333
 119.93   39.68  227.71   0.0003333
 309.00   42.69  220.11   0.0003333
   9.46   43.71   38.46   0.0003333
  77.32  104.01  259.40   0.0003333
 174.50  104.37  105.70   0.0003333
 143.55  103.36   87.38   0.0003333
 260.38   70.94   58.93   0.0003333
 313.06  114.30   73.72   0.0003333
 326.51   37.53  335.29   0.0003333
  34.14  163.31  327.76   0.0003333
 190.60   45.35  181.16   0.0003333
   5.07   70.45   69.56   0.0003333
 180.24  158.81   21.98   0.0003333
 103.46  117.74  353.82   0.0003333
 293.90   96.53  136.48   0.0003333
 262.90  101.03  269.67   0.0003333
 277.56  144.61  291.61   0.0003333
 299.73  131.22  187.48   0.0003333
 211.59   31.32  181.69   0.0003333
 290.00   49.80  226.85   0.0003333
 238.44   40.11  112.84   0.0003333
  34.47   48.73  261.49   0.0003333
 340.99   53.92  223.93   0.0003333
 156.91  103.98  100.10   0.0003333
 274.03  141.70  157.82   0.0003333
 336.28   75.12  219.43   0.0003333
  64.22  120.37  300.98   0.0003333
 357.28   50.42   98.44   0.0003333
 259.89   84.54  188.48   0.0003333
  10.61   53.51  217.95   0.0003333
 280.97  136.85   97.23   0.0003333
 225.17   56.26  149.03   0.0003333
 227.73  101.68  242.27   0.0003333
 268.76  120.47  321.38   0.0003333
 122.96   36.29  325.88   0.0003333
 313.61  105.91  318.25   0.0003333
 327.32   44.67  182.31   0.0003333
 300.11  122.16  192.60   0.0003333
  42.76  124.78  184.20   0.0003333
 241.51  137.90  140.79   0.0003333
 212.43   96.18  221.05   0.0003333
  88.12   37.29  151.43   0.0003333
  32.37   26.28  221.26   0.0003333
  63.75  113.67  274.79   0.0003333
  65.97   90.06  242.82   0.0003333
 106.60  102.28  208.97   0.0003333
  46.20  153.91   61.65   0.0003333
 274.94   28.45  235.25   0.0003333
 184.59   62.15  202.14   0.0003333
  66.50   72.58  267.64   0.0003333
 110.98  108.83  167.60   0.0003333
 105.20   54.70  226.45   0.0003333
 138.10   53.93  147.36   0.0003333
 110.55  107.27  297.40   0.0003333
 148.46  109.36  105.83   0.0003333
 342.25   79.10  237.82   0.0003333
 263.25   96.84  149.16   0.0003333
 150.58  113.76  217.77   0.0003333
 295.51   49.18  312.50   0.0003333
 162.58   86.24   88.16   0.0003333
 298.61  129.64  163.99   0.0003333
  84.87   18.67  135.36   0.0003333
  36.98   60.36  230.78   0.0003333
  14.61   86.11  289.69   0.0003333
 280.59  158.33  276.25   0.0003333
 135.74   42.88   94.54   0.0003333
 312.41   33.05  120.27   0.0003333
 114.04  124.72  210.54   0.0003333
  75.67   50.22   97.76   0.0003333
  70.77   69.63  186.86   0.0003333
  85.23  114.15  146.43   0.0003333
  48.82  142.50  352.03   0.0003333
 106.26   27.80  155.64   0.0003333
 225.62   54.06  120.22   0.0003333
 138.59   97.91  270.51   0.0003333
 347.26  154.04   27.35   0.0003333
 261.58  110.58  273.15   0.0003333
 101.69  141.14  239.90   0.0003333
 261.26   97.59  137.63   0.0003333
 232.27  132.03  206.47   0.0003333
 124.35   36.25  244.41   0.0003333
  95.44  124.67   10.81   0.0003333
 111.83   78.72  103.41   0.0003333
 323.85   73.07  342.39   0.0003333
 138.99  102.79  183.22   0.0003333
 185.62   13.81  122.08   0.0003333
 200.10   80.17   63.56   0.0003333
 100.30   80.96  226.11   0.0003333
  28.54  158.33   47.68   0.0003333
  87.17   71.43    5.91   0.0003333
 343.95  123.87  136.15   0.0003333
 167.47  130.32  270.40   0.0003333
 140.10  147.16   63.42   0.0003333
  97.00  110.31  254.17   0.0003333
 224.95   64.17  213.12   0.0003333
  85.10   66.17  331.30   0.0003333
  92.51   28.64  224.38   0.0003333
  28.63   48.68   83.95   0.0003333
 241.24   95.16   64.91   0.0003333
   8.95   79.11  134.40   0.0003333
 246.20   12.17  322.35   0.0003333
 176.93  116.25   57.84   0.0003333
 101.67  113.58   25.00   0.0003333
 188.68   97.60  274.98   0.0003333
 332.93   96.91  115.51   0.0003333
  91.07   87.62  122.38   0.0003333
 358.87   51.62   56.66   0.0003333
 141.25   89.70  119.78   0.0003333
 329.99   41.02  322.70   0.0003333
 163.82  128.43  167.75   0.0003333
 297.47    9.20   64.60   0.0003333
 301.24   55.43  225.76   0.0003333
  92.37   85.08  131.97   0.0003333
  84.59   86.67  181.21   0.0003333
 309.59  120.53   48.00   0.0003333
 102.03   73.19  349.75   0.0003333
 354.84   68.59  139.35   0.0003333
 357.16  115.08  204.65   0.0003333
 248.68   92.30   54.70   0.0003333
  55.58  115.60  324.65   0.0003333
 339.59   40.22  113.57   0.0003333
 237.80   94.09  153.78   0.0003333
 324.51   95.41  330.59   0.0003333
  34.82  130.19  192.11   0.0003333
 124.12  112.56  313.48   0.0003333
 147.22  114.59  120.58   0.0003333
 231.90   50.73  115.13   0.0003333
  21.71   69.08  340.08   0.0003333
 139.78  132.57  112.50   0.0003333
 288.93  118.93   52.74   0.0003333
 269.74   82.33  205.57   0.0003333
 351.15   60.71  271.06   0.0003333
 308.34   64.88   90.60   0.0003333
 182.10  144.29   10.53   0.0003333
 106.37   99.43  172.07   0.0003333
 247.64  146.06  114.15   0.0003333
 274.48  123.36  243.22   0.0003333
 225.50   64.97  108.14   0.0003333
 283.05   16.65  246.26   0.0003333
  47.09  125.49  294.14   0.0003333
  93.54  110.78  226.82   0.0003333
  50.82   84.62  181.87   0.0003333
   5.80   89.22  151.91   0.0003333
 250.91  107.14  314.62   0.0003333
 159.32   77.07  103.44   0.0003333
 243.37   85.05  249.46   0.0003333
 343.35  114.22  293.62   0.0003333
   7.73   47.51  209.34   0.0003333
  26.21   72.27   31.88   0.0003333
 178.33  160.11  170.55   0.0003333
  60.40  101.25  240.25   0.0003333
 181.90   87.20  307.79   0.0003333
 327.37   91.19  155.21   0.0003333
 157.75   98.35  207.20   0.0003333
 176.97   38.11  196.97   0.0003333
  72.97   75.51  178.86   0.0003333
 130.93   20.61  327.50   0.0003333
 125.90  107.06  246.20   0.0003333
 157.13   50.79  181.57   0.0003333
  80.81   97.48   75.63   0.0003333
 298.42   67.25   18.37   0.0003333
 175.82   87.75  245.79   0.0003333
 204.36   65.44  144.50   0.0003333
 262.52   35.78  259.45   0.0003333
 240.15   41.08   59.33   0.0003333
 269.71   62.30   44.43   0.0003333
 108.04   32.76  285.35   0.0003333
 352.87   51.59   15.08   0.0003333
 164.76   58.44  311.16   0.0003333
  52.71   94.41  334.65   0.0003333
  65.01   42.90  148.28   0.0003333
 339.28  123.05   62.33   0.0003333
 359.28  119.14  243.82   0.0003333
 150.41  111.42  100.37   0.0003333
  95.67   42.77  321.38   0.0003333
 340.98   47.78  296.22   0.0003333
 242.66  117.23  282.32   0.0003333
 214.02   71.97  314.86   0.0003333
 246.78  126.44  171.50   0.0003333
 282.45   31.02   14.34   0.0003333
 264.38  138.33  123.46   0.0003333
 273.33   45.87   15.59   0.0003333
 168.99  126.06  161.81   0.0003333
 282.88   26.78  230.01   0.0003333
  74.19   72.71  308.31   0.0003333
 173.64   28.10  182.56   0.0003333
  68.83  147.43  261.69   0.0003333
 253.58  123.66  295.23   0.0003333
   4.95   59.89  223.85   0.0003333
 349.82   93.64  264.13   0.0003333
 168.94  148.52  154.86   0.0003333
 161.34  134.68  201.16   0.0003333
  33.66  120.17  113.96   0.0003333
  57.73  130.33   74.25   0.0003333
 347.82   49.28  319.82   0.0003333
 217.72  158.85  162.69   0.0003333
 279.05  164.60  312.84   0.0003333
  30.38  115.45  174.21   0.0003333
 249.69   31.93  350.37   0.0003333
 118.19   96.30   96.94   0.0003333
 258.86  131.12   44.78   0.0003333
 270.02   73.36  346.89   0.0003333
 213.70  112.73   60.25   0.0003333
 240.69  110.34   14.90   0.0003333
  58.51   27.42   58.55   0.0003333
  83.31   69.73  166.99   0.0003333
 231.10  140.05   14.13   0.0003333
 331.48   79.76   88.92   0.0003333
  76.74   89.75  180.83   0.0003333
 281.40   73.41  142.21   0.0003333
  66.69  167.87  351.08   0.0003333
  94.58   85.97   56.40   0.0003333
 127.79   26.67  147.22   0.0003333
 215.17  143.09  228.28   0.0003333
  61.94  111.15   51.39   0.0003333
 269.39   77.80  241.14   0.0003333
 198.94  132.62  148.89   0.0003333
  59.94  132.80  183.05   0.0003333
 105.92   57.75  229.34   0.0003333
  22.48  132.25  128.27   0.0003333
  33.97   82.12  145.67   0.0003333
 336.24   46.03   34.73   0.0003333
   4.24   70.05  344.43   0.0003333
 241.89  142.49  151.24   0.0003333
 173.29  110.47  286.29   0.0003333
  15.66  108.42  325.21   0.0003333
 329.56   99.90  350.55   0.0003333
 350.43   71.87  286.78   0.0003333
 224.09   78.23   74.34   0.0003333
   1.99   80.15  166.19   0.0003333
 185.12  128.57  156.52   0.0003333
 170.33  111.33  121.21   0.0003333
 129.68   20.46  151.18   0.0003333
 339.97   65.18  297.85   0.0003333
 155.33  165.58  212.77   0.0003333
  73.88  100.36  124.12   0.0003333
 349.41  135.60  262.66   0.0003333
  68.83  164.94   79.08   0.0003333
 340.67  129.22  128.57   0.0003333
 330.29   51.60  227.72   0.0003333
  82.90  157.00   31.86   0.0003333
 309.74   77.77  189.55   0.0003333
 338.41   62.54   86.25   0.0003333
 293.89   25.37  294.58   0.0003333
 349.41   54.24  305.25   0.0003333
 319.76  102.09  242.80   0.0003333
 115.94   28.31  174.77   0.0003333
  52.06  103.97  270.54   0.0003333
 120.60   47.96   13.30   0.0003333
 197.06   70.04  147.11   0.0003333
 212.89  117.39  152.23   0.0003333
 357.27   85.29  122.52   0.0003333
 272.32  135.03  165.40   0.0003333
 218.23   82.21  221.45   0.0003333
 267.41   98.98  109.23   0.0003333
 116.22  136.64  173.40   0.0003333
  20.92   99.39   80.67   0.0003333
 286.68  110.02  327.21   0.0003333
  75.12  132.37  338.14   0.0003333
 156.90   74.41  252.71   0.0003333
 124.62   54.80  157.47   0.0003333
  89.67   35.57  123.60   0.0003333
 115.58   79.06   92.67   0.0003333
 117.24  141.01  205.93   0.0003333
 271.83   98.63   28.66   0.0003333
 264.11  165.15  202.65   0.0003333
  58.98   94.64  129.55   0.0003333
 102.94  134.85  214.24   0.0003333
 271.37  123.70   27.61   0.0003333
 359.04   74.10  281.41   0.0003333
 277.34   64.85    2.16   0.0003333
 137.24   70.58   25.53   0.0003333
 306.20   26.05  103.49   0.0003333
 111.54   85.34   69.88   0.0003333
 169.32  136.99  220.88   0.0003333
 265.35  123.48  151.39   0.0003333
 152.16  108.42  228.32   0.0003333
 358.73   60.24  273.15   0.0003333
 220.24   75.55  351.61   0.0003333
   6.66   62.86   13.79   0.0003333
 344.95   70.11  321.83   0.0003333
  19.74   91.70  326.28   0.0003333
 348.68   81.49    7.86   0.0003333
 329.78  126.93  306.32   0.0003333
 126.37   84.22  280.30   0.0003333
 319.49  116.61   83.93   0.0003333
 353.43  116.85   14.13   0.0003333
  32.49  101.88  292.60   0.0003333
 176.89  102.85  324.30   0.0003333
 225.80   77.77   35.90   0.0003333
 217.87  164.33  287.46   0.0003333
 208.60   67.56   39.60   0.0003333
  62.15   85.87  120.56   0.0003333
 140.68   57.44   81.64   0.0003333
  14.38  109.27  223.18   0.0003333
  31.85  132.52  152.96   0.0003333
 176.91   99.75   90.32   0.0003333
 274.64   59.55  137.91   0.0003333
  15.71  143.44  314.80   0.0003333
 265.77  100.39   44.05   0.0003333
 307.33  130.27  246.08   0.0003333
 274.64  132.22  329.95   0.0003333
 102.28   53.94   40.84   0.0003333
 190.18   36.40  192.88   0.0003333
 109.22  122.70  250.25   0.0003333
 328.88   14.20  206.48   0.0003333
 343.91   96.73  202.66   0.0003333
 337.25  137.62  316.49   0.0003333
 138.93   59.34  247.56   0.0003333
 120.99  137.12  249.53   0.0003333
 327.88  150.29   15.69   0.0003333
  24.50   28.44   72.90   0.0003333
 137.17   61.32   55.89   0.0003333
 255.82   83.91    9.39   0.0003333
 102.88  110.51  302.31   0.0003333
 151.02  118.49  148.76   0.0003333
 227.15   66.90  162.29   0.0003333
 178.24   96.38  329.30   0.0003333
 231.41   23.94   26.22   0.0003333
 132.79  131.82    8.00   0.0003333
   6.06   80.02   99.10   0.0003333
 185.65   88.92  307.07   0.0003333
  42.38  177.12  241.48   0.0003333
 232.93  163.16  153.93   0.0003333
  38.67   58.02  356.33   0.0003333
 164.72   57.89  193.20   0.0003333
 144.35  118.28  121.17   0.0003333
 108.57  109.47  262.50   0.0003333
  31.84   75.85   57.67   0.0003333
   9.06   44.69    8.36   0.0003333
 300.52   84.46  338.31   0.0003333
  53.05   35.89  210.55   0.0003333
 153.17   15.32  347.17   0.0003333
 336.05   80.11  287.41   0.0003333
 218.56   64.04   42.89   0.0003333
 135.94  119.19  190.98   0.0003333
 146.28  124.62  353.61   0.0003333
 230.09   26.09  217.26   0.0003333
 106.82   64.13   10.56   0.0003333
  47.85  137.13  155.05   0.0003333
 355.75   85.05  320.16   0.0003333
 273.14  123.65  297.87   0.0003333
 164.41   96.12  314.31   0.0003333
 339.24  149.06   64.41   0.0003333
 115.94  143.61  244.01   0.0003333
 332.64  110.57  168.36   0.0003333
 225.64   75.07   58.44   0.0003333
 232.08   59.77  192.17   0.0003333
 220.05   96.19  178.96   0.0003333
 197.24   57.51   13.75   0.0003333
 243.65   82.21  266.22   0.0003333
 347.74  125.05  135.87   0.0003333
 332.68  117.15   32.73   0.0003333
 149.85  130.41   17.71   0.0003333
 115.91   56.55  243.52   0.0003333
  44.68  146.75    0.16   0.0003333
 269.41   84.41   91.77   0.0003333
 294.36  117.65  138.75   0.0003333
 190.63  107.85  258.30   0.0003333
 262.70   72.18  111.57   0.0003333
  65.79  112.17  195.57   0.0003333
 185.21  141.12  273.67   0.0003333
 110.87   73.48   98.31   0.0003333
 322.33   78.35  259.89   0.0003333
 177.28   72.29   19.42   0.0003333
 325.63  128.62   15.40   0.0003333
  85.72  139.96  135.07   0.0003333
  49.31   99.68  233.49   0.0003333
 155.88   53.87   38.10   0.0003333
 302.48   41.11  181.81   0.0003333
 246.10  107.07    2.87   0.0003333
 109.34   50.94   39.79   0.0003333
 133.98  138.91  160.99   0.0003333
 244.10   72.31  105.49   0.0003333
 129.15   94.52  140.54   0.0003333
  92.07   95.12   75.80   0.0003333
 138.28  103.17  355.93   0.0003333
  70.64  151.11  191.32   0.0003333
 341.14   80.88  349.96   0.0003333
  29.73   10.79  250.59   0.0003333
  94.08   51.90  263.16   0.0003333
 350.13   95.70  326.28   0.0003333
 155.79   52.16  269.58   0.0003333
   7.36   95.09  238.63   0.0003333
 237.05  100.04  352.76   0.0003333
 238.18    3.99  149.31   0.0003333
  30.59  117.86   25.23   0.0003333
  65.23   93.82  319.07   0.0003333
 305.74  103.46  250.39   0.0003333
  45.78   42.11    4.79   0.0003333
 184.30   37.49  298.95   0.0003333
 123.01   48.17  199.89   0.0003333
 216.82   56.28  313.66   0.0003333
 346.10   75.13  279.17   0.0003333
  55.44   90.66  118.98   0.0003333
 264.58   94.46  320.02   0.0003333
 177.27   37.56  168.55   0.0003333
 349.11   34.53  343.62   0.0003333
 347.09  144.58  231.80   0.0003333
 219.74  101.70  104.09   0.0003333
 165.48   17.99  256.63   0.0003333
 101.50   93.80  232.90   0.0003333
 335.94   44.23   62.72   0.0003333
  91.85   43.35  352.17   0.0003333
 101.59   90.63  171.92   0.0003333
 290.90   88.61   46.81   0.0003333
  97.63  121.76  100.56   0.0003333
  52.78   19.77  115.31   0.0003333
 353.99  135.07  213.46   0.0003333
 202.59   40.84   34.16   0.0003333
 268.90  112.41  125.74   0.0003333
 109.11   40.60  359.73   0.0003333
 247.11  116.11  196.62   0.0003333
  52.06  101.69  191.02   0.0003333
  42.68  117.47   85.02   0.0003333
 336.83  145.82  301.27   0.0003333
 280.88  102.17  354.18   0.0003333
 226.77   47.50  271.18   0.0003333
  15.88  147.16   44.52   0.0003333
 119.19  141.83  169.01   0.0003333
  23.15  135.47   26.94   0.0003333
 211.52  106.21  223.01   0.0003333
 147.41  118.03  219.02   0.0003333
 263.39  168.54  222.17   0.0003333
 124.06  134.85  157.01   0.0003333
 146.97  112.55   74.47   0.0003333
  71.43  144.79  340.51   0.0003333
 335.70   85.22  134.78   0.0003333
  78.22  110.04  128.16   0.0003333
 258.75   10.71    1.69   0.0003333
 147.80   51.17  258.84   0.0003333
 330.48  114.20   23.99   0.0003333
 232.15   41.26  160.69   0.0003333
 317.97   68.52  269.28   0.0003333
 307.98  156.86  219.90   0.0003333
 240.27  149.00  237.64   0.0003333
  27.54   89.56   51.27   0.0003333
 248.87   90.94   89.26   0.0003333
  38.73  169.87   55.36   0.0003333
 340.72  102.14  313.47   0.0003333
  92.66  153.45  269.16   0.0003333
  74.98  144.81  280.35   0.0003333
  40.68   76.44  167.63   0.0003333
  73.74  117.45  327.45   0.0003333
 307.37   60.50  243.45   0.0003333
 356.93   49.22  357.85   0.0003333
 310.46  106.03  149.78   0.0003333
 245.94   71.17  101.37   0.0003333
 223.91  104.81  118.61   0.0003333
 157.82  116.71  109.02   0.0003333
 182.49  110.19  291.08   0.0003333
 238.51   23.91   82.01   0.0003333
 227.31  113.61  155.52   0.0003333
 254.15   88.55   42.67   0.0003333
 245.39  108.19   48.00   0.0003333
 198.13  148.09    2.77   0.0003333
 101.86   70.88  132.86   0.0003333
 277.51   40.97  304.87   0.0003333
  89.81  135.60   90.00   0.0003333
 156.77   75.69  281.45   0.0003333
 233.98  121.15   19.34   0.0003333
 260.35  136.81  233.39   0.0003333
  25.02  135.50  274.38   0.0003333
  60.77   42.78  283.84   0.0003333
 102.88   43.41  166.65   0.0003333
   8.74  100.87   99.64   0.0003333
  79.32   79.60  251.87   0.0003333
 203.62   33.28   34.98   0.0003333
 311.32   27.36  335.54   0.0003333
 176.44   65.84  238.94   0.0003333
 338.17   89.77   87.10   0.0003333
 336.37  105.57  152.00   0.0003333
 160.19  175.15   62.29   0.0003333
 125.61  155.50  216.30   0.0003333
 216.54   91.53  169.42   0.0003333
 297.01   70.09  279.09   0.0003333
 283.53    4.98  103.80   0.0003333
 189.83   90.81  298.23   0.0003333
  37.07   86.42  173.35   0.0003333
 342.53   67.15  266.81   0.0003333
 288.69  136.03   26.58   0.0003333
 221.78  150.18  126.83   0.0003333
 309.10   93.95   64.54   0.0003333
  40.05    9.11   20.39   0.0003333
 127.14  108.91  311.26   0.0003333
 307.40   85.55   95.73   0.0003333
 196.75   96.25  188.53   0.0003333
  49.99  124.63  332.44   0.0003333
 293.74   47.24  115.37   0.0003333
  28.04  133.70   12.32   0.0003333
   4.21   51.34  239.03   0.0003333
  49.42  162.89  161.30   0.0003333
 173.21  115.45  108.75   0.0003333
 196.70  108.34   64.92   0.0003333
  18.18  127.84  181.23   0.0003333
 123.41   50.20  112.06   0.0003333
   7.28  112.94  176.23   0.0003333
  52.05   31.62  104.08   0.0003333
 197.86   76.40  282.82   0.0003333
 329.36   43.31  189.18   0.0003333
 289.69   51.81  142.47   0.0003333
 237.09  162.90  291.48   0.0003333
 270.78   36.79  329.16   0.0003333
 175.46  129.38  131.10   0.0003333
 331.32  147.57  172.72   0.0003333
 245.25  136.63  288.74   0.0003333
 357.96  155.96  354.92   0.0003333
 353.91   69.78  305.69   0.0003333
 179.33   41.87  100.15   0.0003333
 187.17  124.16   18.35   0.0003333
 239.28   71.48  313.73   0.0003333
 111.77   69.22  260.85   0.0003333
  81.81   89.72   17.41   0.0003333
 241.62   86.05  308.03   0.0003333
   6.68   85.31  180.84   0.0003333
  86.88   87.86  147.33   0.0003333
 337.81   98.30  218.77   0.0003333
 224.15  103.39  179.54   0.0003333
  58.78  135.41   64.69   0.0003333
 235.13  106.78   57.58   0.0003333
 151.09  135.82   51.61   0.0003333
 218.58   99.20  254.66   0.0003333
  20.51  122.63  265.42   0.0003333
 149.50   63.47  348.89   0.0003333
 350.29   35.62  256.63   0.0003333
 281.85   46.09   15.97   0.0003333
 277.63  144.11   62.99   0.0003333
  29.95   98.48  359.83   0.0003333
 192.73   68.61  243.59   0.0003333
 309.29   32.49   42.21   0.0003333
  17.35   72.79  250.17   0.0003333
 212.73   72.94  208.29   0.0003333
 283.24   39.66  256.33   0.0003333
 177.05   90.87   13.04   0.0003333
  21.57   82.33   19.56   0.0003333
 331.66   57.63  151.49   0.0003333
   4.02   53.04  254.38   0.0003333
 142.53  119.06   25.35   0.0003333
  53.54  144.30  266.68   0.0003333
 318.45  117.44  141.21   0.0003333
 127.68  127.38  120.29   0.0003333
  29.64   80.50   53.93   0.0003333
  31.81   15.41   29.67   0.0003333
  46.69   51.97  126.16   0.0003333
 217.70  117.98  182.77   0.0003333
  75.09  101.14  269.74   0.0003333
 259.72  140.09  109.12   0.0003333
 148.50  133.83  114.41   0.0003333
 246.81   80.90  140.64   0.0003333
   8.60  155.75    0.87   0.0003333
 326.10   87.45  218.93   0.0003333
 131.73  154.46  138.65   0.0003333
 134.95  141.55   77.24   0.0003333
 110.23  145.32  140.91   0.0003333
 196.70  124.74  349.55   0.0003333
  68.30  104.51  157.64   0.0003333
 244.43  165.95  128.81   0.0003333
 292.47   55.40  102.63   0.0003333
 227.02   10.56  109.98   0.0003333
  61.10   58.52  217.18   0.0003333
  72.61   70.27   45.65   0.0003333
 126.55  142.27   22.02   0.0003333
  46.72  144.85   80.44   0.0003333
 298.72   57.01   74.02   0.0003333
 272.77   41.29  148.56   0.0003333
 132.06  156.83   42.35   0.0003333
 162.39   71.32  237.28   0.0003333
 163.99   77.49  142.14   0.0003333
 297.43   98.70  297.36   0.0003333
 236.80  166.41   15.76   0.0003333
 111.63  166.69  173.09   0.0003333
 110.26   85.34  340.01   0.0003333
  67.65   75.67  122.33   0.0003333
  80.57  159.46  156.73   0.0003333
 120.07   64.01  261.03   0.0003333
  18.08  119.75  270.08   0.0003333
  59.81  100.75  305.26   0.0003333
 321.20  130.65  173.85   0.0003333
 321.54   82.31    0.84   0.0003333
  58.84   98.76    6.99   0.0003333
 298.51   66.94  185.70   0.0003333
 296.86  114.89  287.67   0.0003333
  87.18  117.21  217.39   0.0003333
 146.65  114.77  124.58   0.0003333
 104.93  121.28  218.50   0.0003333
 224.35   83.11   69.74   0.0003333
 110.43   69.64   27.19   0.0003333
 191.52   63.66  107.53   0.0003333
 136.55   62.02   92.38   0.0003333
 355.88   89.72   23.98   0.0003333
  53.75   97.81  175.46   0.0003333
 136.32  138.40    1.74   0.0003333
 263.25  154.46  177.99   0.0003333
 331.19   51.22  333.26   0.0003333
 358.33   53.34  186.57   0.0003333
  65.09   64.04    2.93   0.0003333
 170.43   68.29  324.69   0.0003333
 205.71   47.76   78.12   0.0003333
 329.87   46.09  272.95   0.0003333
   4.25   87.25   67.68   0.0003333
  91.64   65.29  141.78   0.0003333
 325.64   66.06    7.22   0.0003333
 345.30  123.11  345.10   0.0003333
 236.56   36.38  333.13   0.0003333
  96.95  103.89  242.92   0.0003333
  41.24  122.38   33.46   0.0003333
  95.04   78.46   14.21   0.0003333
 292.05  137.00  293.30   0.0003333
  93.13   26.80  314.94   0.0003333
 152.35  126.02  349.29   0.0003333
 248.27  122.75  221.75   0.0003333
 247.54   73.66  192.08   0.0003333
 245.80   55.90  110.28   0.0003333
 184.40  109.76  262.64   0.0003333
 190.20  108.80  219.39   0.0003333
  36.53  113.16  349.88   0.0003333
 123.50   97.68  255.98   0.0003333
 217.27  107.88  249.16   0.0003333
 295.45  109.35  270.77   0.0003333
  82.77   90.39  205.92   0.0003333
 311.72   20.42   30.64   0.0003333
 183.67   58.22   67.01   0.0003333
 273.18  125.01  161.80   0.0003333
  27.75  130.38   98.55   0.0003333
 168.32  103.55  292.39   0.0003333
 263.19  107.02   49.91   0.0003333
 217.77   70.19  333.77   0.0003333
 352.70   66.12  272.74   0.0003333
 149.54  103.43  312.50   0.0003333
 106.14   20.33   77.84   0.0003333
 155.11   94.97  126.62   0.0003333
 291.83  116.18  251.82   0.0003333
 354.49   70.89   60.92   0.0003333
 194.03  153.59   62.39   0.0003333
 183.94   94.59   64.48   0.0003333
 217.89  103.78  318.32   0.0003333
 262.68  175.47   78.24   0.0003333
  68.43   93.40   72.15   0.0003333
 186.12   39.39  283.70   0.0003333
 250.69  129.13  201.32   0.0003333
 122.04   69.47  155.74   0.0003333
  35.09  117.88   54.37   0.0003333
  97.53  116.38   47.68   0.0003333
 340.38  120.59  306.24   0.0003333
 206.59   16.69  314.17   0.0003333
 218.64  106.55  154.73   0.0003333
  39.76   45.21  201.12   0.0003333
   5.75   44.73  226.13   0.0003333
 333.15   96.76  144.14   0.0003333
 288.17   60.41  229.26   0.0003333
 277.91   75.72   16.60   0.0003333
  56.06   95.17  293.82   0.0003333
  95.80   24.44  133.72   0.0003333
 327.80  109.31   85.20   0.0003333
 352.44  127.24    9.40   0.0003333
 314.64   90.74   81.57   0.0003333
  29.91  118.84  170.39   0.0003333
 242.69  115.51   61.32   0.0003333
  86.36  129.33  280.60   0.0003333
 138.59   79.47   74.48   0.0003333
  57.21   77.74  162.51   0.0003333
   7.00  141.09  205.00   0.0003333
  35.38  173.20  248.24   0.0003333
 120.40  171.65  330.42   0.0003333
  41.06  119.80   12.93   0.0003333
  60.47  109.92  221.28   0.0003333
 195.50   75.97   49.64   0.0003333
 243.86   81.02  236.11   0.0003333
 142.53   74.90    4.09   0.0003333
 177.18  157.12   52.36   0.0003333
 157.64   96.20   73.50   0.0003333
  48.73   69.90   37.62   0.0003333
 234.98  126.51  196.59   0.0003333
 154.55  135.33  299.27   0.0003333
 313.26   32.15  255.31   0.0003333
  95.61  114.09  276.35   0.0003333
   3.26  143.63  245.02   0.0003333
 176.56  144.04   23.63   0.0003333
  14.95  102.12  167.04   0.0003333
 325.68  110.86  188.28   0.0003333
 136.25  133.88   21.22   0.0003333
  60.08  150.40  158.71   0.0003333
 125.82   38.07   30.42   0.0003333
  55.00   36.19  157.99   0.0003333
   6.76   77.98  317.04   0.0003333
 259.56   13.99  292.13   0.0003333
  29.25   82.07  271.63   0.0003333
 333.97  115.81   22.90   0.0003333
  12.25   70.29  103.45   0.0003333
 261.54  103.81  340.06   0.0003333
 179.94   33.81   85.91   0.0003333
  51.22  125.82   18.48   0.0003333
 270.78   26.10  148.88   0.0003333
 326.93   66.04  219.75   0.0003333
 193.57  132.89  286.19   0.0003333
 129.06  110.01   18.80   0.0003333
 188.37  149.70  263.43   0.0003333
 125.84   19.86  191.46   0.0003333
 265.83  133.10  267.48   0.0003333
  41.70   59.48  119.60   0.0003333
 232.98  143.56   43.12   0.0003333
  38.72  125.66   30.25   0.0003333
 102.80  145.70  289.17   0.0003333
 215.43  137.01    9.69   0.0003333
 283.06   18.04  297.80   0.0003333
 328.46  119.79  286.01   0.0003333
   4.98  103.37  254.87   0.0003333
 275.34   86.37   39.23   0.0003333
 303.29  118.47  209.57   0.0003333
 356.91   52.44  238.56   0.0003333
 285.07   84.46  117.97   0.0003333
  92.45   94.69  267.57   0.0003333
  42.72  160.52  232.25   0.0003333
 358.57  110.58  105.39   0.0003333
 184.87   53.50  205.28   0.0003333
 165.15   82.27  119.30   0.0003333
   7.52   88.07  269.93   0.0003333
 315.83  114.53  120.89   0.0003333
  54.45  100.94  145.60   0.0003333
 246.66   90.32   95.92   0.0003333
 334.75   54.59  223.41   0.0003333
 102.30   35.56  350.44   0.0003333
 237.46   53.34  141.05   0.0003333
 157.22   18.11  244.36   0.0003333
 203.54  111.27  327.58   0.0003333
 316.99  118.08   72.15   0.0003333
 249.13  134.51  324.15   0.0003333
 190.03   67.65  226.82   0.0003333
 139.45   70.34  125.72   0.0003333
 149.96   51.19  221.14   0.0003333
 337.86  112.04  289.94   0.0003333
  82.15   82.57   46.87   0.0003333
 219.29   84.93  143.64   0.0003333
 333.13   29.88   76.67   0.0003333
  48.82   20.42  212.68   0.0003333
  19.73   71.06  349.32   0.0003333
 177.18  123.39   94.52   0.0003333
 286.42  107.21  120.95   0.0003333
  86.43   14.20  222.90   0.0003333
 138.91   24.49   65.40   0.0003333
 274.00  120.10   92.62   0.0003333
 260.89   36.25  339.28   0.0003333
 132.53   93.55  337.61   0.0003333
 242.75   37.66  257.82   0.0003333
 276.52  104.81  221.79   0.0003333
  30.13   30.63  283.79   0.0003333
 293.37  145.44  309.36   0.0003333
 325.55   78.47  119.42   0.0003333
 143.30  164.28  199.03   0.0003333
 156.52   34.36  186.13   0.0003333
  25.43   89.96   16.08   0.0003333
  52.19   25.14  131.33   0.0003333
 121.80  112.84   37.40   0.0003333
 145.34   31.58  352.70   0.0003333
 223.24   86.29  190.55   0.0003333
 153.00   74.77   67.30   0.0003333
 182.12  133.90  175.95   0.0003333
 169.23  104.32  301.51   0.0003333
  11.06   31.95  242.07   0.0003333
 302.67   66.39  352.08   0.0003333
 213.08   39.96   89.38   0.0003333
 140.86  117.83  323.76   0.0003333
 343.25  100.44  337.01   0.0003333
  69.92  104.82  256.93   0.0003333
 149.36  121.30   84.86   0.0003333
 220.11   59.65  148.18   0.0003333
  80.44  123.92   21.68   0.0003333
 175.75  115.91  276.75   0.0003333
 107.38  123.71  239.82   0.0003333
 158.79   99.43  215.66   0.0003333
  61.05  141.56   97.88   0.0003333
 137.92   80.13  255.54   0.0003333
 190.35  145.53    9.60   0.0003333
 129.17   82.66  184.88   0.0003333
 131.12  126.09  120.82   0.0003333
  84.68   67.45  186.97   0.0003333
  56.16   36.06  123.67   0.0003333
 358.60   32.70   50.01   0.0003333
  35.44   83.20  101.06   0.0003333
  94.65  106.36  157.51   0.0003333
 167.08   52.36  142.01   0.0003333
   4.27   24.91   24.49   0.0003333
 214.73   75.18  254.29   0.0003333
 169.42  108.79  289.90   0.0003333
 148.92  170.90  254.73   0.0003333
   4.75  147.27   80.90   0.0003333
 236.45   51.85   10.86   0.0003333
 267.25  101.06   48.77   0.0003333
  70.44   52.64   91.80   0.0003333
  71.99   56.91   64.78   0.0003333
 197.11   43.56  158.63   0.0003333
  36.50   37.92  341.00   0.0003333
 305.11   61.23  155.87   0.0003333
 318.18   52.71  124.40   0.0003333
 221.63   71.85  307.64   0.0003333
 313.10  135.56  254.20   0.0003333
  77.40  124.38  239.83   0.0003333
 240.37  139.64  168.82   0.0003333
 137.82  131.35  182.12   0.0003333
 207.81   76.54  320.68   0.0003333
  73.11   52.72   69.44   0.0003333
  61.02   91.40   46.43   0.0003333
 247.71  116.38  255.40   0.0003333
 175.88   37.46  293.13   0.0003333
  21.72  128.35  328.34   0.0003333
  43.78   42.19  323.11   0.0003333
 355.24   58.75  110.96   0.0003333
 289.70   97.26   85.02   0.0003333
 232.56  117.16    9.24   0.0003333
 163.98  120.87  119.72   0.0003333
 165.78   45.07  311.64   0.0003333
 134.58   40.73   99.51   0.0003333
  90.03   48.14   94.74   0.0003333
 316.76   82.93  238.09   0.0003333
  42.43   66.03  283.73   0.0003333
  75.74   94.88  125.40   0.0003333
 200.98  148.09  216.86   0.0003333
  23.42   60.34    8.83   0.0003333
  16.22  101.49   73.62   0.0003333
 350.61  121.16  100.39   0.0003333
  42.58  108.77  240.38   0.0003333
  48.44  109.19   94.88   0.0003333
 233.08   27.58  167.91   0.0003333
 257.17  168.06  163.64   0.0003333
 192.42  143.90  279.18   0.0003333
  98.68  126.02  250.68   0.0003333
  92.76  146.14   72.30   0.0003333
 282.85   31.08   83.13   0.0003333
  39.49   96.45  319.20   0.0003333
 190.65   65.44   19.55   0.0003333
 327.50  167.13  225.64   0.0003333
 314.64   80.59  350.44   0.0003333
 329.03  177.34  243.76   0.0003333
 152.85  110.31  124.46   0.0003333
 344.30   95.72  101.98   0.0003333
 168.38  122.95    1.78   0.0003333
  71.10  111.14  271.08   0.0003333
 282.74   67.75  270.86   0.0003333
 121.78   74.32  326.56   0.0003333
 277.82  148.59   79.63   0.0003333
 139.14   33.30  207.36   0.0003333
 161.39   37.39   36.07   0.0003333
 194.53   60.21  157.53   0.0003333
 196.93   55.35   44.28   0.0003333
 286.86   72.92  357.04   0.0003333
  89.68   16.73   56.70   0.0003333
  42.57  165.27  332.25   0.0003333
 239.52   71.22   11.61   0.0003333
 176.92  116.16  223.14   0.0003333
  24.24   36.60  106.47   0.0003333
 273.02   93.02  178.27   0.0003333
 155.75  152.69  300.13   0.0003333
 230.94   79.37   26.09   0.0003333
  18.02  109.18  217.35   0.0003333
 167.70   66.93  268.46   0.0003333
  82.21  114.02   17.55   0.0003333
 139.35   19.47  190.45   0.0003333
 233.28   98.66   97.14   0.0003333
  29.24   58.31  129.51   0.0003333
 335.81  145.42  281.56   0.0003333
  37.09  157.59  282.25   0.0003333
 181.85   96.55   95.75   0.0003333
 141.97   69.58  216.53   0.0003333
 137.16  149.89  319.48   0.0003333
 285.46  167.68  168.65   0.0003333
  67.50   49.06  191.37   0.0003333
 265.74  173.74  107.73   0.0003333
 325.29  138.90   12.35   0.0003333
 259.51  132.18  131.75   0.0003333
  51.79   98.24  179.75   0.0003333
 243.86   82.25  150.20   0.0003333
  83.49  121.02  256.31   0.0003333
 143.51   38.83   34.97   0.0003333
 336.16   61.92   46.91   0.0003333
 338.79   93.80   44.90   0.0003333
 126.41   94.12   58.15   0.0003333
 335.11   79.11  280.36   0.0003333
 343.43   14.89  177.67   0.0003333
 204.71   74.36  152.93   0.0003333
 303.03   63.31  191.09   0.0003333
 184.95   69.87   40.58   0.0003333
 142.60   39.14    9.35   0.0003333
 217.83   56.53   33.28   0.0003333
  52.60  122.46   86.64   0.0003333
 326.24  107.53  356.11   0.0003333
 207.19   20.56  209.21   0.0003333
 221.66   18.15  128.53   0.0003333
 119.68  140.39   88.70   0.0003333
  30.65  135.66  223.17   0.0003333
  90.42  115.99  238.26   0.0003333
 268.83  110.13  294.00   0.0003333
 263.32  110.85  274.13   0.0003333
 113.26  142.80   53.58   0.0003333
  58.27   83.12  178.49   0.0003333
  15.23  138.98  217.97   0.0003333
  19.37   60.12   65.77   0.0003333
  61.79   98.07  271.07   0.0003333
 355.52  169.18  239.99   0.0003333
 323.53   93.62  347.48   0.0003333
  53.48  114.32  334.95   0.0003333
 211.84   61.23   88.74   0.0003333
 306.94   92.23  186.21   0.0003333
 126.24   90.12  177.67   0.0003333
 253.17  150.56  223.06   0.0003333
 238.71   88.26   83.00   0.0003333
  71.24   50.31  302.24   0.0003333
 337.52   71.38  145.95   0.0003333
  94.46  127.71  189.04   0.0003333
 194.67  156.60  266.74   0.0003333
  53.58  155.21  264.13   0.0003333
 319.22  144.47  314.24   0.0003333
 253.64  103.76  357.45   0.0003333
  24.92   73.53  198.10   0.0003333
 335.17   50.16  225.84   0.0003333
  91.78   99.56  161.01   0.0003333
 242.10   64.17  176.55   0.0003333
 270.87  131.65   34.40   0.0003333
 340.00   70.20  104.76   0.0003333
 117.48   83.45  301.45   0.0003333
 157.23  156.87  121.04   0.0003333
  94.13   37.87   17.15   0.0003333
 123.22   41.57  141.84   0.0003333
 234.22   95.37   67.61   0.0003333
 228.43  113.16  249.72   0.0003333
 287.34   41.75  100.70   0.0003333
  55.16   68.95   38.11   0.0003333
 172.52   74.86   18.01   0.0003333
  72.47  135.57  237.29   0.0003333
 307.40   50.35  107.25   0.0003333
 266.50  143.27   84.18   0.0003333
 106.24  164.74   43.24   0.0003333
 349.25  126.56  283.04   0.0003333
 273.05  119.14  321.92   0.0003333
 194.66  106.28   22.53   0.0003333
 290.91   51.90  136.58   0.0003333
  54.28   82.39  142.45   0.0003333
 252.29  124.34  216.19   0.0003333
  95.16   88.60   88.57   0.0003333
 107.00   96.71  298.23   0.0003333
 179.04  108.91  224.53   0.0003333
 226.85  152.93  201.04   0.0003333
 152.73   67.38   80.56   0.0003333
  69.70  164.70  272.79   0.0003333
 204.59   80.96    6.38   0.0003333
 219.11  139.71  174.97   0.0003333
 157.84  175.59   97.67   0.0003333
 319.95   90.08  139.07   0.0003333
 270.68  120.64  182.90   0.0003333
  51.12  110.55   21.94   0.0003333
  53.05   50.37  346.92   0.0003333
 223.97    7.23  326.82   0.0003333
  10.89   38.47  351.42   0.0003333
  89.57   66.92  241.58   0.0003333
  76.72   37.25  135.09   0.0003333
  84.05  138.02  267.32   0.0003333
 319.84   35.24    5.14   0.0003333
  14.01  144.31  353.18   0.0003333
  68.97   82.28   48.72   0.0003333
 278.10  100.58  278.90   0.0003333
 222.61  143.01  182.20   0.0003333
 337.86   84.97   47.66   0.0003333
 177.08   96.87  265.65   0.0003333
 307.55  105.13  231.53   0.0003333
 113.13   55.18  165.64   0.0003333
 115.64   73.76  243.86   0.0003333
 351.42   20.47  172.58   0.0003333
 316.20  113.23   12.66   0.0003333
 213.39  140.20   37.33   0.0003333
   7.57   31.39  269.56   0.0003333
 190.53   27.06  109.87   0.0003333
  34.88   87.95  352.25   0.0003333
 329.34  130.06  229.61   0.0003333
  80.48  130.09   11.05   0.0003333
 164.89  154.45  178.88   0.0003333
 277.52   42.12    0.82   0.0003333
 119.29  149.75   17.71   0.0003333
 200.66   64.01  117.40   0.0003333
  19.92  152.65  228.80   0.0003333
 214.12   68.37  208.85   0.0003333
 110.52   69.62  274.14   0.0003333
 131.75  104.28  199.09   0.0003333
 177.74  137.41  260.31   0.0003333
 222.18   83.28  185.82   0.0003333
 114.01   66.84  293.95   0.0003333
 216.31   45.69  254.56   0.0003333
 199.52  124.69  142.47   0.0003333
 201.42  160.26   81.81   0.0003333
 156.35   16.96  210.33   0.0003333
  67.37  101.92  314.45   0.0003333
 242.40  165.96  122.20   0.0003333
 129.32  119.09  306.30   0.0003333
 176.88  112.33  240.49   0.0003333
  62.30  123.05  270.58   0.0003333
 220.30  116.43  356.47   0.0003333
  26.76  107.35  308.76   0.0003333
 133.75   30.78  334.53   0.0003333
 128.68   84.95  120.95   0.0003333
  34.34   96.68    2.29   0.0003333
 174.59  106.29   50.24   0.0003333
 152.34  124.03  322.78   0.0003333
  95.60   25.71   68.68   0.0003333
  88.30   54.61  104.10   0.0003333
 131.82  136.75   18.87   0.0003333
 111.38   38.89  108.88   0.0003333
 187.78   21.57   34.71   0.0003333
  92.22  101.11  119.65   0.0003333
 317.90  129.44   18.28   0.0003333
 125.25   97.22   72.38   0.0003333
 187.48   79.91  219.50   0.0003333
  21.61   54.77   18.03   0.0003333
  68.14   32.23  207.37   0.0003333
  93.86  161.00  200.42   0.0003333
   7.53   46.87   24.66   0.0003333
 213.02  139.34  123.71   0.0003333
  14.26   25.14   47.16   0.0003333
  36.97   77.04  310.40   0.0003333
 130.03  118.23  212.98   0.0003333
 182.86  113.14   25.77   0.0003333
 167.28   86.97  132.29   0.0003333
 222.03  104.95  359.02   0.0003333
  78.67  103.96  276.15   0.0003333
 240.32   63.88  113.36   0.0003333
 201.31  155.46  176.31   0.0003333
 204.20   52.29   58.61   0.0003333
 167.99  102.19    9.32   0.0003333
 313.48   47.94  334.53   0.0003333
  12.62   37.38  279.15   0.0003333
 311.34   38.31   37.50   0.0003333
 345.85   46.36  106.73   0.0003333
 327.59   78.81  184.98   0.0003333
 271.86   99.47  313.42   0.0003333
 282.89   96.55  136.34   0.0003333
 118.76   84.96  314.45   0.0003333
 169.50   64.09  150.33   0.0003333
  24.92   75.26  212.67   0.0003333
  36.98   58.69   31.51   0.0003333
  85.70   70.27  310.73   0.0003333
 207.50  157.92  193.44   0.0003333
 132.62  103.23  122.05   0.0003333
  97.78   55.52  208.08   0.0003333
 174.78   71.76   17.14   0.0003333
  53.25   97.59  101.52   0.0003333
 140.77  111.31  211.50   0.0003333
 221.71  170.46   83.57   0.0003333
 291.01   19.03  204.06   0.0003333
 194.90   62.94  336.96   0.0003333
 136.89   89.73   54.14   0.0003333
  80.53   74.89  320.28   0.0003333
  99.70   56.21  150.07   0.0003333
 216.17   76.87  128.24   0.0003333
 151.17  127.48  259.30   0.0003333
  67.38  124.70  167.21   0.0003333
 221.21  108.11  316.45   0.0003333
  93.18   73.43   52.65   0.0003333
  88.89   71.22  229.74   0.0003333
 294.38  153.46  340.23   0.0003333
 215.95   43.47  161.59   0.0003333
 204.43  148.46  134.18   0.0003333
 116.89  111.67  142.46   0.0003333
 347.70   81.54  222.51   0.0003333
  17.26   97.94  308.64   0.0003333
  58.27   91.58  101.75   0.0003333
 299.02   69.08  117.19   0.0003333
 183.76   53.59   77.21   0.0003333
  56.75   74.73   32.80   0.0003333
 307.11   58.68  194.09   0.0003333
 313.02   37.81  153.20   0.0003333
 259.83   73.84    6.17   0.0003333
 319.35  120.74  188.37   0.0003333
 155.16  107.00  305.62   0.0003333
 349.96  109.68  159.80   0.0003333
 188.82   79.36  125.35   0.0003333
  12.77   61.27  262.18   0.0003333
 259.82   85.88   61.16   0.0003333
 290.94  135.47  176.26   0.0003333
 219.85   68.74  322.43   0.0003333
 158.64   45.92   33.74   0.0003333
  63.54  108.40  204.87   0.0003333
 345.74   77.17    8.03   0.0003333
 187.35  146.51  154.41   0.0003333
 248.57   86.84  284.42   0.0003333
  81.79  133.01  220.84   0.0003333
 258.37  112.71  358.45   0.0003333
 208.83  124.53  312.92   0.0003333
 194.60   46.14    6.68   0.0003333
  33.89   85.10  319.39   0.0003333
  26.78  145.29  254.71   0.0003333
  65.59  136.78  234.91   0.0003333
 148.54   81.80  303.86   0.0003333
 240.40  104.30   19.02   0.0003333
 317.66   66.78  103.23   0.0003333
 327.77   99.70   35.74   0.0003333
 155.04  136.26  113.50   0.0003333
  47.07  112.32   70.95   0.0003333
 182.50   64.87  238.10   0.0003333
 286.50  125.11   85.74   0.0003333
  35.75  117.88    6.50   0.0003333
 244.94  102.79   53.69   0.0003333
 348.05   16.71   19.43   0.0003333
 256.33   72.44   81.10   0.0003333
 284.11  105.59  343.60   0.0003333
  10.27   64.10   27.55   0.0003333
 179.58   52.90  241.82   0.0003333
 250.31  111.21  298.42   0.0003333
 166.98   63.51  207.24   0.0003333
  94.71  107.99   30.23   0.0003333
 220.61   58.02  331.61   0.0003333
 139.07  114.59  212.75   0.0003333
 148.10  129.57  319.79   0.0003333
  12.91   32.38   96.06   0.0003333
  89.85  144.86  285.93   0.0003333
 326.83  174.47    5.95   0.0003333
 122.81   99.35  338.70   0.0003333
  88.88   62.08  167.81   0.0003333
 109.82   61.31  286.97   0.0003333
 141.84  108.65  105.30   0.0003333
  99.03  125.25  354.19   0.0003333
   2.79  105.84    9.54   0.0003333
 141.93   60.37   64.58   0.0003333
 317.81  143.74  162.84   0.0003333
 138.03  179.38  327.45   0.0003333
  82.94  162.63  240.42   0.0003333
  95.85   87.25  197.01   0.0003333
 176.06   92.55  121.44   0.0003333
 326.81   30.37  322.95   0.0003333
 134.71   67.01  221.59   0.0003333
  89.15   32.20  357.13   0.0003333
   6.11   68.14  154.66   0.0003333
  35.08  115.29  194.00   0.0003333
 291.03   97.60  214.12   0.0003333
 353.37  105.38  350.02   0.0003333
 358.36   90.03  265.40   0.0003333
 154.62  133.22  111.38   0.0003333
  70.60   83.98  166.47   0.0003333
 258.66  146.05  169.69   0.0003333
  27.45  145.33  260.75   0.0003333
 165.85  104.82  127.46   0.0003333
 138.31  153.51   47.93   0.0003333
 266.75  130.15  203.14   0.0003333
  93.76  127.60  301.37   0.0003333
 347.42   46.68  165.34   0.0003333
  34.17   71.09  339.69   0.0003333
 100.73  157.23    8.39   0.0003333
  67.91   78.72  331.76   0.0003333
 183.42  139.18   27.67   0.0003333
 147.63  153.53  106.31   0.0003333
 230.88   17.52  213.58   0.0003333
  11.79   53.87   34.80   0.0003333
  20.79   98.94  190.29   0.0003333
 249.64   57.14  283.45   0.0003333
 135.49  138.09  103.17   0.0003333
   7.07  146.96  298.28   0.0003333
  67.17  134.43  233.71   0.0003333
 355.11   30.59   26.71   0.0003333
 174.87   94.32  310.95   0.0003333
 164.19  153.47  275.17   0.0003333
 305.28  140.68   88.46   0.0003333
 173.85   47.13  182.55   0.0003333
 174.91   53.74  321.62   0.0003333
 113.43  112.67  249.76   0.0003333
 137.30   72.24  275.45   0.0003333
 186.48  138.47  191.90   0.0003333
   1.31   44.83  156.73   0.0003333
 225.72  137.62  201.88   0.0003333
 289.86  136.43  307.84   0.0003333
 272.18  119.67  325.58   0.0003333
   0.83   70.43  215.48   0.0003333
  98.18  149.70  139.95   0.0003333
  58.25   77.65  152.58   0.0003333
 143.27   96.42  249.05   0.0003333
 180.38  124.42  228.11   0.0003333
  40.52  126.43  186.74   0.0003333
  47.91   42.26  171.40   0.0003333
 102.01   63.10  207.91   0.0003333
 121.46   42.11   79.44   0.0003333
 131.74   35.82   27.86   0.0003333
 199.71   35.64  221.06   0.0003333
 357.55   52.43  100.21   0.0003333
 118.85   83.39  269.79   0.0003333
 330.65  111.28  292.09   0.0003333
 288.44   73.24  319.92   0.0003333
 352.36   61.15   39.44   0.0003333
 205.73  109.54  280.30   0.0003333
 202.95  129.37  295.10   0.0003333
 211.12   60.39  295.95   0.0003333
 351.65   76.86   88.55   0.0003333
 341.54  135.49    1.48   0.0003333
 141.90   50.07  252.75   0.0003333
 328.03   89.48   39.51   0.0003333
 166.11  115.03  235.31   0.0003333
 280.10  122.57  331.84   0.0003333
 341.32   51.99   69.14   0.0003333
  64.47   99.08  182.57   0.0003333
 257.10   16.88  217.71   0.0003333
 229.53  140.96  273.33   0.0003333
  29.80   58.15  246.59   0.0003333
 220.40  140.04  160.20   0.0003333
 312.92   69.66  182.84   0.0003333
 347.55   63.50    4.90   0.0003333
 310.46   85.78  283.29   0.0003333
 154.94  118.68  359.82   0.0003333
  34.55   82.96  346.16   0.0003333
 223.90   79.81    8.59   0.0003333
 355.90   28.46   74.59   0.0003333
 332.10   89.96   66.53   0.0003333
  48.54   88.20  353.65   0.0003333
  51.98   87.99  333.08   0.0003333
 119.99   89.28   41.83   0.0003333
 343.80   81.06   80.03   0.0003333
   3.02   71.94  163.32   0.0003333
 327.00  116.22  138.48   0.0003333
  65.12   70.61   64.24   0.0003333
 134.41   89.27   22.78   0.0003333
 197.60  143.88   12.55   0.0003333
 310.07   51.68  352.62   0.0003333
 199.12   77.93  227.59   0.0003333
 183.97  104.82   52.86   0.0003333
  52.49  111.74  194.92   0.0003333
 337.92   79.62  341.91   0.0003333
 343.89   91.76   74.23   0.0003333
 294.53   64.25   21.75   0.0003333
 333.19   92.88  161.42   0.0003333
 259.75  160.53  243.53   0.0003333
  49.16   43.74  327.50   0.0003333
 160.49   40.33   84.06   0.0003333
 262.92   88.74   83.24   0.0003333
 187.89   28.62  307.61   0.0003333
 233.01  106.66  237.98   0.0003333
 264.96   27.82  128.40   0.0003333
 313.56  113.00  115.74   0.0003333
 132.15   56.62   34.18   0.0003333
  82.39  141.48  312.18   0.0003333
 288.38  102.05   83.79   0.0003333
 147.57   83.62   69.45   0.0003333
  69.24   77.91  338.91   0.0003333
 250.04  125.83  216.99   0.0003333
 233.87   16.63  127.83   0.0003333
 307.87   12.19  191.64   0.0003333
 335.04  145.72  178.04   0.0003333
 100.64  143.22    4.93   0.0003333
  56.99  121.59  119.66   0.0003333
 262.50   51.79  278.55   0.0003333
 249.66  103.31  151.43   0.0003333
 344.95   63.80  130.19   0.0003333
 127.95  107.57   65.00   0.0003333
  47.43   39.31  151.42   0.0003333
  40.99   76.22  202.67   0.0003333
 229.83   42.51  133.80   0.0003333
 270.73   34.33  225.79   0.0003333
  92.40   34.69  114.72   0.0003333
 197.52   40.45   60.72   0.0003333
 157.69   55.38   80.78   0.0003333
 162.02   13.69  238.33   0.0003333
  37.99   35.32   17.17   0.0003333
 291.80   63.98  230.73   0.0003333
 293.44   67.47  176.07   0.0003333
 277.97   54.98  127.68   0.0003333
 334.35   40.03   64.17   0.0003333
  89.01   74.13  130.85   0.0003333
 167.39  109.53    2.60   0.0003333
 174.15  102.57  168.26   0.0003333
 305.52  168.01  354.24   0.0003333
 295.87   34.62  268.37   0.0003333
  64.29   83.69   14.05   0.0003333
 127.88  159.44   22.43   0.0003333
 309.74   58.07  344.44   0.0003333
 217.80   72.37  163.91   0.0003333
 273.79   33.28  223.75   0.0003333
  50.08   26.61  218.04   0.0003333
 218.54  109.59   57.63   0.0003333
 105.38   60.34  350.19   0.0003333
 256.25   84.11  324.04   0.0003333
  11.54   61.29   80.01   0.0003333
 109.24   36.32  284.96   0.0003333
  14.15   55.68  182.77   0.0003333
  86.76   62.70  303.43   0.0003333
 302.15   42.03  308.68   0.0003333
 329.79  153.93  327.90   0.0003333
 249.77  129.60   57.33   0.0003333
 160.94   41.67  239.71   0.0003333
  48.80   62.47  227.44   0.0003333
 348.97   58.55  252.39   0.0003333
 126.48   39.04   32.91   0.0003333
  88.86  122.58   49.64   0.0003333
 335.30  129.41  310.65   0.0003333
 357.91  127.30  225.82   0.0003333
 153.95  139.16   89.44   0.0003333
 195.49  121.38  175.93   0.0003333
 197.18   41.35   92.05   0.0003333
 180.54   18.90  122.57   0.0003333
  80.91   58.31  155.39   0.0003333
 222.76  100.36  229.74   0.0003333
 134.04  100.19   72.25   0.0003333
 105.90  121.66  341.25   0.0003333
  19.85   41.24   39.08   0.0003333
  72.25   34.73  275.86   0.0003333
 141.47  109.37  173.11   0.0003333
  81.37   59.68  279.86   0.0003333
 210.79  140.84  171.14   0.0003333
 162.79  101.87  141.00   0.0003333
 129.87   20.24  182.62   0.0003333
 212.85  119.45  164.85   0.0003333
 355.29   39.13  136.67   0.0003333
  59.61  130.44  157.66   0.0003333
  92.64  110.67  238.51   0.0003333
 180.63   34.28    9.78   0.0003333
  94.77  122.02   68.32   0.0003333
  94.97   91.75  265.18   0.0003333
 185.64   48.28  311.06   0.0003333
 224.55   99.29  150.50   0.0003333
 208.96   55.06  301.62   0.0003333
  28.11  133.53  319.76   0.0003333
 212.85   78.55   19.40   0.0003333
 358.61   65.36  195.09   0.0003333
 177.46   91.74  232.17   0.0003333
  53.35   53.24   84.29   0.0003333
 302.67  143.32  131.68   0.0003333
 186.17   67.22  311.11   0.0003333
 123.86   53.52   66.38   0.0003333
  97.88  133.94  271.36   0.0003333
 284.08  113.34  350.74   0.0003333
 252.23  107.80  342.85   0.0003333
 148.70  108.74  179.68   0.0003333
 160.16   76.63  175.88   0.0003333
 276.47   95.12  357.19   0.0003333
 235.57   43.99  112.34   0.0003333
 133.41   70.96   66.01   0.0003333
  80.21   93.43  353.55   0.0003333
 189.45   82.93   66.04   0.0003333
 245.19  123.96  202.84   0.0003333
 267.79   38.60   93.85   0.0003333
 358.96   67.08   49.68   0.0003333
  55.78   28.50   23.38   0.0003333
  42.42   80.59  193.71   0.0003333
 296.92  104.58  210.41   0.0003333
 263.31  106.37  154.03   0.0003333
 257.18   64.22  352.33   0.0003333
  20.60  113.32  209.09   0.0003333
 317.18  126.15  353.50   0.0003333
 305.05   99.78  340.57   0.0003333
 210.74   84.84  189.50   0.0003333
 256.38   51.52  172.60   0.0003333
 211.89   48.03  102.67   0.0003333
 273.43   40.99  192.88   0.0003333
  25.06   98.28  238.99   0.0003333
 210.88  100.13  356.41   0.0003333
 281.81   90.04  160.23   0.0003333
