TEXTURE AT STRAIN = 0
   1.0   1.0   1.0
DISCRETE TEXTURE FROM ODF FILE 
B    451
214.800000	36.760000	319.060000	0.00333333
19.690000	25.480000	33.270000	0.00333333
357.940000	154.640000	309.700000	0.00333333
140.020000	36.070000	276.830000	0.00333333
341.290000	20.600000	85.960000	0.00159639
227.460000	4.590000	75.060000	7.58068e-05
207.970000	8.610000	86.440000	0.00333333
29.770000	65.760000	253.750000	0.000419219
140.220000	177.420000	246.980000	0.00271695
167.500000	117.520000	183.220000	0.00021902
97.600000	32.180000	173.120000	0.00201449
167.520000	21.090000	224.250000	0.00333333
131.290000	134.660000	326.230000	0.00111794
245.620000	66.030000	114.380000	2.79501e-05
279.250000	6.840000	191.700000	0.00333333
340.650000	41.800000	305.190000	0.00333333
351.450000	30.060000	36.880000	0.00333333
15.230000	151.850000	192.990000	0.00255675
28.240000	153.140000	64.750000	0.00261362
273.790000	123.670000	253.080000	0.00104586
62.720000	175.080000	80.130000	0.000188714
133.140000	42.940000	14.470000	0.00136072
41.180000	153.770000	152.510000	0.00200627
6.440000	24.670000	165.810000	0.00333333
272.130000	54.000000	148.520000	0.00254904
61.800000	40.980000	88.340000	0.00333333
42.730000	56.080000	147.530000	1.23362e-05
353.260000	152.770000	64.710000	0.00333333
98.570000	37.450000	324.480000	0.000905153
131.450000	19.790000	297.440000	0.00333333
71.620000	39.490000	80.470000	0.00250568
232.120000	170.370000	80.470000	0.000832708
328.070000	139.440000	338.630000	0.000391669
183.820000	62.300000	210.180000	0.000179931
345.390000	133.350000	177.840000	0.000472945
39.660000	157.440000	358.990000	0.00270938
142.250000	153.170000	267.130000	0.00333333
119.290000	16.650000	190.420000	0.00252428
63.870000	150.980000	262.360000	0.00333333
127.270000	19.200000	353.660000	0.00333333
92.740000	172.730000	42.370000	0.00333333
13.170000	42.980000	104.870000	0.00333333
318.980000	163.940000	200.450000	0.00333333
322.680000	163.420000	197.870000	0.0017972
202.310000	5.260000	270.940000	0.00333333
300.800000	33.540000	245.710000	0.00263265
24.050000	154.950000	58.770000	0.00333333
13.700000	43.510000	334.630000	2.67619e-05
84.450000	57.400000	55.380000	0.00166875
101.500000	146.230000	48.190000	0.00333333
160.040000	138.610000	227.280000	0.000855995
54.680000	16.020000	165.810000	0.00333333
37.180000	2.170000	42.420000	0.000454891
130.400000	24.680000	147.330000	0.00130031
258.970000	151.220000	192.100000	0.00235296
174.400000	81.650000	330.160000	0.000653529
317.300000	163.010000	84.210000	0.000884248
247.920000	26.500000	51.450000	0.00333333
46.320000	141.850000	302.330000	0.000364931
218.780000	44.130000	234.110000	0.00333333
230.190000	129.540000	39.320000	0.00138615
118.320000	42.460000	254.080000	0.00279555
308.980000	153.720000	267.090000	0.00333333
149.270000	155.540000	334.520000	0.00333333
173.860000	30.750000	304.760000	0.00333333
5.060000	53.130000	79.690000	0.000752403
168.450000	52.910000	11.770000	0.00105339
30.540000	60.430000	348.630000	0.00302815
139.690000	56.940000	45.510000	0.000644428
33.590000	145.700000	37.180000	0.00157951
351.580000	148.740000	57.590000	0.00333333
111.100000	117.010000	31.920000	0.00183563
301.860000	150.470000	263.590000	0.000895998
72.890000	138.560000	132.480000	0.00252904
264.600000	32.600000	74.600000	0.00333333
254.880000	126.590000	115.690000	0.00333333
183.250000	160.950000	317.150000	0.00333333
191.940000	141.040000	182.860000	0.00137463
213.840000	63.740000	74.610000	0.00138792
200.210000	139.940000	349.410000	0.00309485
73.270000	45.500000	344.650000	0.00269712
25.500000	44.010000	261.820000	0.00134935
34.890000	23.360000	219.050000	0.00333333
74.160000	155.290000	188.000000	0.00333333
154.320000	139.010000	290.090000	0.0010027
117.190000	106.410000	115.120000	7.2824e-05
302.720000	42.420000	272.060000	0.00333333
18.830000	38.370000	246.620000	0.00333333
3.870000	139.360000	219.580000	0.00333333
70.700000	155.270000	358.590000	0.00333333
348.030000	46.240000	193.850000	0.00333333
67.760000	169.670000	308.230000	0.00333333
223.440000	27.130000	264.020000	0.00333333
354.130000	153.290000	179.300000	0.00333333
258.980000	2.760000	280.370000	0.00333333
178.920000	111.420000	356.740000	0.000594256
54.540000	14.690000	338.800000	0.00333333
33.670000	43.620000	277.460000	0.000783633
0.840000	44.000000	307.390000	0.00022855
23.760000	132.950000	11.930000	0.00333333
108.280000	125.170000	282.280000	0.00120873
286.720000	146.560000	202.710000	0.00333333
19.590000	36.060000	234.800000	0.00333333
35.110000	21.420000	126.850000	0.00329008
244.000000	44.970000	266.570000	0.00333333
353.690000	29.250000	105.050000	0.00211541
144.590000	39.470000	328.070000	0.00333333
214.560000	133.640000	108.000000	0.00305196
304.940000	169.170000	110.230000	0.00333333
253.370000	19.770000	116.740000	0.000210294
0.520000	148.430000	307.100000	0.000299744
311.270000	7.410000	123.890000	0.00333333
223.040000	157.020000	337.110000	0.00333333
156.190000	155.840000	203.290000	0.00333333
287.510000	121.900000	323.450000	0.000779398
99.410000	35.440000	291.500000	0.00333333
193.820000	64.770000	103.680000	0.000435099
98.900000	39.760000	162.000000	6.32442e-05
269.220000	144.610000	141.210000	0.00333333
320.670000	161.180000	9.860000	0.00333333
136.060000	41.720000	29.680000	0.00155483
36.070000	158.830000	245.400000	0.00333333
228.890000	139.550000	357.770000	0.00333333
290.820000	143.450000	26.980000	0.00333333
318.270000	29.880000	337.120000	2.16994e-05
146.330000	150.200000	145.260000	0.00333333
54.700000	26.790000	313.530000	0.00216929
150.650000	146.380000	140.840000	0.000882033
224.540000	140.890000	67.660000	0.00256294
246.030000	138.500000	183.230000	0.00333333
194.880000	27.220000	225.490000	0.0021779
160.080000	36.890000	291.610000	0.00133164
342.750000	122.160000	132.590000	0.00013052
70.080000	47.180000	247.620000	2.83369e-05
191.400000	41.820000	262.630000	0.00333333
70.620000	24.430000	191.190000	0.00030436
32.520000	20.590000	336.230000	0.00211854
184.130000	40.400000	196.800000	0.00296063
117.850000	159.330000	143.780000	0.00333333
119.730000	139.450000	48.920000	0.00124121
123.990000	160.350000	202.560000	0.000177942
194.440000	143.070000	128.410000	0.00333333
244.190000	25.280000	292.580000	0.000805652
81.830000	64.550000	289.390000	0.00022165
235.030000	156.250000	178.030000	0.00333333
293.920000	6.240000	265.390000	0.00333333
170.580000	44.710000	289.320000	0.00295406
210.530000	36.250000	131.540000	0.00333333
346.430000	174.290000	181.360000	0.00129666
102.580000	116.570000	17.530000	0.00088262
283.670000	135.160000	118.390000	0.00306311
67.810000	136.360000	7.730000	0.00333333
94.980000	27.290000	193.870000	0.00333333
187.680000	26.190000	64.250000	0.00333333
161.950000	41.060000	106.370000	0.00107027
20.880000	127.430000	129.470000	0.000181349
337.150000	141.530000	6.940000	0.00333333
22.950000	87.370000	328.960000	9.12957e-05
10.480000	125.540000	10.990000	0.00254688
118.580000	157.330000	320.430000	0.00333333
118.670000	133.340000	79.820000	0.00128875
158.150000	22.660000	284.060000	5.74218e-06
278.860000	31.310000	279.700000	0.00333333
305.930000	83.860000	342.250000	0.000716134
341.200000	134.140000	221.340000	0.000348248
2.480000	8.230000	203.140000	0.00176872
111.310000	146.500000	173.100000	0.0021072
65.420000	39.740000	108.390000	0.00333333
125.890000	50.270000	24.300000	0.00321799
88.590000	32.590000	146.700000	0.00333333
168.390000	42.370000	312.160000	0.0016001
143.290000	141.750000	291.000000	0.00206632
228.340000	144.320000	80.510000	0.00333333
210.620000	141.790000	64.770000	0.00176907
90.830000	89.900000	156.460000	0.000197989
264.730000	160.810000	44.260000	0.00304993
251.960000	40.550000	76.370000	0.00219462
31.170000	145.740000	101.710000	0.0011027
200.260000	103.340000	267.760000	0.000466589
47.200000	117.650000	155.270000	0.00153877
120.920000	145.990000	292.640000	0.00333333
68.400000	150.030000	266.710000	0.00333333
288.810000	149.190000	74.090000	0.00333333
203.270000	36.750000	320.380000	0.00333333
19.300000	18.360000	25.870000	0.00333333
31.520000	158.920000	239.770000	0.00333333
358.830000	31.470000	102.320000	0.00333333
285.030000	144.610000	130.100000	0.00129634
152.300000	141.310000	115.830000	0.00273575
38.730000	136.490000	253.790000	0.00333333
34.370000	91.960000	147.500000	0.00124909
141.490000	16.080000	108.060000	0.00333333
71.190000	153.800000	180.930000	0.0015193
164.110000	131.230000	220.220000	0.00136306
85.480000	147.470000	164.880000	0.00333333
156.580000	157.680000	96.650000	0.00333333
48.090000	121.920000	309.520000	0.00148231
235.730000	107.460000	167.250000	0.000550475
322.840000	39.470000	79.410000	0.00125605
57.810000	154.610000	155.440000	0.00063455
39.000000	155.850000	80.050000	0.00333333
162.150000	136.370000	95.370000	0.00127946
313.890000	163.660000	228.530000	0.00333333
298.520000	117.890000	94.830000	0.00122412
184.360000	30.230000	66.650000	0.00333333
320.020000	140.570000	305.840000	0.00333333
42.990000	17.950000	296.350000	0.00333333
347.940000	34.840000	162.480000	0.000441035
221.560000	139.700000	199.780000	0.000300969
191.340000	28.300000	226.220000	0.00333333
307.470000	22.670000	154.990000	0.00333333
12.740000	21.910000	289.410000	0.00333333
144.670000	40.810000	26.950000	0.00160103
29.280000	39.290000	247.260000	0.000466396
272.670000	151.860000	282.390000	0.00333333
235.210000	156.460000	123.180000	0.00118382
64.660000	140.360000	283.620000	0.0026344
48.930000	154.250000	320.060000	0.00333333
99.030000	149.980000	200.990000	0.00333333
115.400000	75.880000	40.420000	9.86775e-05
312.220000	45.050000	37.110000	0.00285282
354.950000	28.400000	154.250000	0.00333333
311.210000	149.360000	264.400000	0.00218611
207.040000	42.890000	51.450000	0.00333333
102.910000	51.160000	187.030000	0.00272338
154.170000	138.000000	38.160000	0.00333333
142.170000	18.570000	191.450000	0.00333333
219.510000	42.840000	218.570000	0.000273115
232.690000	157.910000	62.910000	0.00333333
242.040000	34.970000	287.350000	0.00133156
295.650000	94.620000	286.900000	0.000822422
137.080000	140.600000	291.400000	0.00333333
347.340000	131.650000	169.170000	0.00333333
3.690000	44.130000	193.080000	0.00333333
247.930000	31.430000	39.090000	0.00328437
61.590000	42.540000	314.270000	0.000382775
204.140000	158.680000	44.340000	0.000188124
272.970000	141.500000	325.030000	0.00333333
243.900000	137.930000	284.600000	0.00333333
127.820000	39.520000	295.200000	1.46049e-05
13.180000	26.510000	282.970000	0.00259016
217.930000	134.150000	92.810000	0.00333333
95.640000	37.230000	127.860000	0.00140481
348.530000	20.300000	324.960000	0.00333333
274.310000	144.320000	132.440000	0.00333333
294.620000	23.890000	216.060000	0.00180313
319.230000	143.460000	185.100000	0.00333333
98.230000	145.850000	44.910000	0.00333333
119.930000	159.850000	328.920000	0.00333333
129.610000	154.470000	145.770000	0.00333333
328.100000	49.440000	156.360000	0.000755833
173.290000	44.380000	324.150000	0.00333333
296.450000	94.620000	264.190000	0.000638374
253.510000	67.680000	250.150000	0.00108802
68.540000	40.700000	326.270000	0.00333333
147.140000	138.320000	246.810000	0.00333333
109.740000	147.030000	102.390000	0.00333333
155.480000	22.330000	241.320000	0.00333333
272.010000	25.380000	283.510000	0.000806828
198.180000	143.110000	182.310000	0.00333333
267.120000	36.550000	190.330000	0.00333333
88.370000	72.450000	223.760000	8.25283e-05
79.180000	124.730000	27.960000	0.0014901
171.780000	21.360000	290.450000	0.000433063
247.860000	64.280000	41.830000	6.67669e-05
253.700000	110.730000	149.370000	0.000447626
76.350000	136.350000	301.710000	0.00333333
311.510000	147.830000	265.310000	0.00333333
234.780000	54.970000	18.210000	0.0016894
85.750000	57.530000	33.280000	0.00262182
139.810000	34.120000	175.590000	0.000378911
53.910000	170.140000	65.130000	0.00333333
216.680000	144.750000	123.410000	0.002228
9.280000	151.580000	54.470000	0.00333333
100.820000	124.110000	116.720000	7.18672e-05
160.350000	155.320000	88.970000	0.00333333
173.070000	28.220000	236.390000	0.00333333
285.060000	32.670000	329.220000	0.000185418
134.400000	37.190000	41.870000	0.00333333
71.560000	157.270000	122.640000	0.00333333
329.120000	145.360000	76.250000	0.00333333
57.260000	140.780000	32.900000	0.00333333
159.440000	43.640000	235.120000	0.00333333
216.970000	143.210000	67.400000	0.00333333
141.200000	93.060000	256.880000	0.000261384
31.380000	141.090000	104.780000	0.000667743
54.470000	137.270000	253.070000	0.00160983
359.980000	36.890000	290.870000	0.00161324
187.960000	124.930000	100.650000	0.00104671
2.740000	29.780000	34.120000	0.00333333
60.990000	8.880000	146.170000	0.00110377
110.310000	98.600000	205.720000	4.34628e-05
302.750000	18.110000	268.190000	0.00115867
121.810000	19.960000	232.250000	0.00297614
272.510000	145.940000	204.920000	0.00333333
63.210000	24.750000	10.860000	0.00333333
209.330000	38.510000	82.500000	0.00333333
284.320000	148.780000	308.740000	0.00145005
32.180000	165.960000	50.890000	0.00333333
90.510000	146.650000	51.090000	0.00333333
284.500000	131.180000	121.720000	0.00266512
216.480000	44.580000	278.390000	0.00333333
2.550000	58.440000	166.410000	0.00075261
126.170000	136.450000	148.470000	0.00142062
55.330000	38.030000	54.050000	0.00143055
16.870000	110.670000	41.870000	0.000604229
255.480000	68.120000	334.630000	3.47771e-05
61.600000	26.120000	16.500000	0.00333333
146.770000	35.100000	336.490000	0.00138229
326.790000	42.780000	295.060000	0.00179553
239.970000	41.060000	17.700000	0.00333333
338.630000	72.270000	210.170000	0.000559656
3.250000	36.350000	105.320000	0.00333333
352.820000	42.170000	177.060000	0.00168328
328.930000	127.570000	276.720000	0.000260473
88.410000	129.750000	172.810000	0.00195124
181.810000	32.190000	249.890000	0.00333333
85.980000	91.470000	69.550000	0.000413297
125.540000	18.850000	182.180000	0.00333333
286.260000	114.570000	113.240000	3.03288e-05
280.750000	50.640000	188.530000	0.00185416
284.350000	149.630000	256.930000	0.00333333
280.820000	127.700000	221.090000	0.00278399
54.450000	60.170000	36.950000	0.00173048
254.910000	132.340000	221.000000	0.00129674
325.970000	25.210000	203.620000	0.00333333
246.230000	111.540000	186.740000	0.000267632
299.380000	50.970000	346.320000	0.00096341
145.990000	60.780000	140.340000	0.000568404
106.350000	172.510000	272.400000	0.00333333
148.480000	33.250000	112.190000	0.00333333
47.950000	37.110000	46.630000	0.00157009
251.850000	60.890000	274.300000	0.00103403
151.490000	25.020000	48.850000	0.00215592
150.390000	154.290000	147.180000	0.00333333
230.130000	25.480000	74.460000	0.00327224
25.310000	131.230000	145.260000	0.00205093
307.360000	160.660000	120.200000	0.00333333
37.990000	43.460000	202.590000	0.00296655
49.550000	62.420000	325.210000	0.00119557
185.250000	138.560000	73.010000	0.00333333
269.080000	157.080000	222.280000	0.00333333
191.060000	46.120000	161.120000	0.00255116
40.220000	140.530000	61.070000	0.0012897
212.340000	158.190000	18.990000	0.00333333
311.610000	135.460000	218.360000	0.00333333
140.440000	23.470000	16.400000	0.0024381
61.810000	130.900000	33.940000	0.000633196
258.710000	151.130000	77.190000	0.00185373
233.160000	23.460000	223.680000	0.000924087
15.110000	104.660000	63.130000	0.000116537
214.610000	22.310000	226.630000	0.00254631
157.170000	25.430000	231.560000	0.00333333
231.400000	155.230000	287.200000	0.00333333
103.900000	53.240000	103.950000	0.00333333
316.280000	142.650000	141.490000	0.00333333
8.400000	134.140000	46.570000	0.00187078
143.620000	124.670000	204.530000	0.000696132
92.100000	113.010000	176.120000	0.000547251
162.930000	156.030000	156.310000	0.00333333
256.140000	32.900000	324.000000	0.00262373
103.410000	175.550000	280.590000	0.00333333
53.430000	16.320000	153.190000	0.00333333
202.870000	159.600000	329.870000	0.00333333
179.640000	155.310000	308.790000	0.00159804
46.280000	155.310000	332.110000	0.00333333
292.520000	136.690000	171.360000	0.00333333
125.560000	126.600000	304.740000	0.00333333
5.010000	75.490000	313.980000	0.000271433
241.100000	21.630000	181.450000	0.00333333
310.080000	39.990000	28.990000	0.00333333
25.390000	103.270000	214.390000	0.000196319
257.400000	51.230000	100.580000	0.00174498
300.140000	164.820000	128.700000	7.50277e-05
339.730000	49.300000	47.380000	0.00207933
148.580000	151.570000	31.130000	0.00333333
183.970000	125.830000	268.410000	0.00249172
116.240000	145.350000	49.370000	0.00333333
145.400000	37.030000	357.150000	0.000980732
175.330000	137.980000	174.580000	0.00333333
95.010000	134.820000	312.960000	0.00333333
141.490000	118.870000	168.710000	0.00176625
127.750000	141.670000	219.180000	0.00333333
118.180000	73.100000	351.820000	0.000345088
322.100000	29.480000	269.090000	0.00333333
322.080000	116.540000	119.410000	0.00107522
93.720000	143.690000	292.450000	0.00192613
162.650000	152.470000	81.550000	0.00333333
119.570000	159.880000	80.620000	0.00333333
274.060000	151.400000	221.710000	0.00333333
286.260000	35.580000	15.500000	0.0017443
327.510000	159.850000	357.390000	0.00333333
349.680000	150.340000	237.760000	1.36796e-05
109.790000	37.780000	34.170000	0.000707343
329.270000	44.730000	157.340000	0.00333333
337.730000	20.530000	17.600000	0.00114757
34.960000	143.950000	161.430000	0.00333333
62.910000	135.340000	129.250000	0.00333333
52.840000	61.690000	234.740000	0.00222492
125.040000	15.380000	45.620000	0.00333333
305.960000	17.920000	328.370000	0.00333333
62.090000	158.340000	176.460000	0.00333333
308.010000	161.550000	103.100000	0.00302508
34.500000	35.990000	42.230000	0.000141699
99.050000	138.010000	73.680000	0.00325138
354.660000	145.840000	102.950000	0.000624327
351.600000	30.440000	30.990000	0.00333333
236.860000	40.640000	29.140000	0.00157586
95.410000	147.620000	282.430000	0.00194242
192.440000	26.440000	308.880000	0.00102245
250.800000	155.360000	290.700000	0.00333333
194.670000	47.050000	271.050000	0.00122383
184.400000	30.900000	124.390000	0.00333333
126.860000	61.110000	351.960000	0.00305892
1.720000	29.990000	33.310000	0.000252367
133.540000	34.580000	280.650000	0.00333333
229.020000	41.750000	82.740000	0.00333333
309.790000	10.330000	311.310000	0.00333333
127.560000	98.950000	155.370000	0.000551088
68.280000	25.520000	247.810000	0.00333333
256.480000	138.770000	335.340000	0.0026895
262.580000	56.770000	309.320000	0.000666311
44.770000	156.080000	197.470000	0.00333333
269.720000	49.860000	77.200000	0.00089483
254.750000	128.720000	303.940000	0.00218466
81.810000	76.660000	264.890000	0.000371169
184.990000	61.740000	94.110000	0.000115748
120.990000	39.740000	310.350000	0.00205716
121.060000	43.870000	243.970000	0.00333333
357.870000	151.020000	9.790000	0.00333333
4.670000	152.370000	172.350000	0.00333333
100.060000	148.630000	205.700000	0.00312842
94.140000	157.710000	134.620000	0.00333333
238.860000	161.230000	275.210000	0.0011781
119.790000	15.850000	180.860000	0.00333333
273.510000	151.850000	346.440000	0.00252788
47.700000	136.680000	218.220000	0.000962316
60.950000	166.760000	13.730000	0.000359908
209.170000	74.340000	49.610000	0.000152258
283.230000	92.340000	144.010000	0.000456251
335.830000	124.960000	140.920000	0.00191568
271.360000	151.250000	207.780000	0.00333333
357.810000	151.900000	126.980000	0.00333333
352.080000	30.530000	280.330000	0.00333333
69.580000	14.040000	86.100000	0.00333333
32.710000	22.590000	30.190000	0.00333333
340.560000	53.810000	104.340000	0.000139016
269.660000	37.940000	293.950000	0.00148119
27.120000	160.840000	232.410000	0.00219334
230.870000	74.970000	274.320000	0.000278127
265.780000	51.320000	110.670000	0.0008604
