TEXTURE AT STRAIN = 0
1.0   1.0   1.0
DISCRETE TEXTURE FROM ODF FILE VPSC_Texture\RD_EBSD_Initial.TEX
B 329
184.220000	51.700000	323.780000	0.000976026
116.090000	139.410000	19.110000	0.00172228
328.290000	142.560000	246.010000	0.00206007
142.310000	82.370000	101.810000	0.000215852
73.480000	159.900000	264.740000	0.00666667
101.870000	33.550000	242.720000	0.00481388
163.340000	35.900000	82.790000	0.000866953
16.890000	49.700000	263.470000	0.0044203
109.960000	157.520000	204.240000	0.00666667
344.260000	60.390000	68.270000	0.00029941
232.480000	52.120000	243.700000	0.00105305
43.130000	129.770000	346.170000	0.0010741
2.270000	156.150000	283.290000	0.00487946
238.630000	142.820000	241.290000	0.00202091
306.210000	150.040000	107.660000	0.00666667
208.190000	34.790000	222.250000	0.00666667
112.680000	145.030000	297.300000	0.00666667
116.030000	140.130000	173.200000	0.00666667
50.560000	35.220000	273.170000	0.00226138
21.400000	58.310000	150.290000	0.000366517
94.190000	34.220000	57.160000	0.00657545
355.690000	96.750000	224.770000	8.02917e-05
320.170000	134.540000	4.240000	0.000659658
312.610000	133.610000	69.300000	0.00433322
281.910000	145.970000	145.390000	0.00666667
105.060000	140.710000	103.770000	0.00607342
27.700000	48.740000	49.400000	0.000291004
341.420000	84.810000	130.080000	1.98472e-05
311.160000	71.250000	96.320000	0.000110189
137.840000	37.880000	34.260000	0.00666667
342.380000	144.470000	89.150000	0.00666667
261.020000	143.810000	258.550000	0.00265432
211.510000	38.960000	285.950000	0.00466993
224.390000	94.150000	38.170000	0.000356094
352.750000	137.020000	214.910000	0.00146176
264.910000	157.970000	36.460000	0.00666667
337.280000	40.830000	181.530000	0.00666667
357.170000	66.000000	26.970000	4.82529e-05
34.780000	51.400000	202.300000	0.00023643
195.070000	148.000000	358.410000	0.00666667
4.140000	31.760000	337.570000	0.00666667
29.670000	97.560000	86.290000	0.000209937
262.870000	131.880000	234.420000	0.00549802
217.760000	76.860000	82.720000	0.000295046
127.140000	34.090000	29.220000	0.00456548
120.320000	41.670000	351.600000	0.000923032
274.340000	97.290000	150.950000	0.000120761
270.720000	15.990000	72.030000	0.00189429
345.200000	151.990000	120.110000	0.00244301
130.400000	161.780000	70.520000	0.00666667
5.730000	99.810000	64.640000	6.96168e-05
15.180000	147.960000	334.050000	0.000228847
343.710000	35.140000	113.220000	0.0001737
211.790000	130.020000	58.620000	3.55347e-05
337.570000	53.010000	253.190000	0.000229169
40.540000	28.390000	260.930000	0.00414271
265.920000	152.860000	161.400000	0.00666667
162.500000	71.350000	201.470000	1.82185e-05
13.480000	159.080000	16.720000	0.00666667
248.610000	139.970000	78.570000	0.00514851
147.560000	26.110000	120.170000	0.00666667
142.090000	131.690000	149.540000	0.00344136
96.870000	153.850000	178.070000	0.00666667
175.760000	83.720000	11.630000	0.000123054
274.030000	19.120000	162.190000	0.00291409
165.960000	105.010000	194.780000	0.000145262
296.300000	55.300000	15.780000	0.00338945
71.760000	62.190000	58.750000	0.000155749
173.620000	146.340000	301.760000	0.00291103
32.220000	162.260000	358.700000	0.00019367
135.850000	35.580000	2.690000	0.000622487
358.510000	96.670000	63.960000	0.000105209
9.940000	150.990000	246.370000	0.00666667
39.550000	15.580000	18.880000	0.00361233
148.160000	54.720000	312.820000	9.58953e-05
3.200000	24.770000	195.780000	0.00666667
2.980000	142.940000	1.120000	0.00614291
351.300000	63.940000	26.990000	0.00024748
10.090000	137.600000	202.050000	0.00117674
157.200000	124.580000	326.780000	0.00183889
213.660000	141.110000	312.210000	0.00666667
40.960000	142.070000	175.390000	0.00346854
36.640000	75.130000	207.470000	0.000613192
29.260000	130.670000	44.480000	0.0015161
74.890000	96.110000	144.930000	0.000111885
338.840000	128.750000	270.770000	0.00126249
52.040000	141.080000	310.420000	0.00666667
347.780000	49.130000	119.540000	0.000575354
244.830000	90.190000	108.040000	0.000327303
341.590000	40.420000	353.170000	0.00580256
250.040000	129.300000	203.500000	0.000168795
281.140000	112.840000	298.910000	7.93861e-05
288.130000	35.690000	84.530000	0.00185051
204.030000	121.950000	107.810000	0.00115326
345.440000	15.240000	356.030000	0.00568147
334.270000	31.630000	262.290000	0.00666667
175.610000	6.420000	40.780000	0.00666667
114.180000	156.690000	167.070000	0.00457232
181.710000	153.430000	9.700000	0.000617047
282.630000	68.280000	144.730000	0.000465772
35.950000	41.760000	256.050000	0.00274664
323.010000	30.390000	109.790000	0.00516659
359.520000	61.460000	44.940000	0.000211493
246.350000	151.340000	283.220000	0.00666667
307.290000	49.870000	347.530000	0.0018665
154.770000	31.220000	133.780000	0.00104723
98.730000	67.320000	184.890000	0.000581623
88.970000	88.770000	275.630000	9.51872e-05
146.100000	17.280000	119.850000	0.00455139
197.880000	47.280000	352.520000	0.000617431
335.410000	54.340000	185.480000	0.00064137
283.920000	125.360000	121.790000	0.00110533
266.610000	57.430000	0.710000	0.000228977
74.640000	133.950000	45.120000	0.0020901
37.070000	139.710000	3.750000	0.00286467
315.500000	15.960000	311.320000	0.00666667
310.080000	136.860000	151.450000	0.00666667
313.840000	148.460000	359.820000	0.000352204
288.350000	147.070000	70.980000	0.00666667
74.200000	18.720000	56.480000	0.00334632
148.940000	135.510000	113.620000	0.000835993
244.410000	88.100000	276.040000	0.000205551
258.590000	150.760000	299.980000	0.00610858
326.710000	24.030000	252.150000	0.00666667
230.430000	164.390000	80.350000	0.0023043
157.250000	147.220000	289.890000	0.00666667
178.070000	137.940000	102.010000	0.00463731
90.080000	59.090000	106.140000	0.00201476
194.550000	121.540000	322.150000	0.00162573
343.630000	56.770000	101.160000	8.08852e-06
59.050000	148.140000	40.860000	0.00122465
19.830000	155.200000	47.090000	0.00666667
321.040000	8.190000	357.180000	0.00633453
281.350000	44.120000	89.550000	0.00666667
236.850000	98.400000	161.560000	0.000128424
8.990000	130.640000	9.160000	0.00187581
5.300000	131.610000	202.120000	0.00176745
160.990000	76.840000	46.880000	0.000117531
330.170000	152.950000	221.630000	0.00666667
146.830000	32.960000	215.750000	0.00666667
70.800000	130.540000	250.800000	0.00249203
348.590000	29.280000	179.510000	0.00666667
100.680000	139.850000	5.050000	0.003518
118.890000	143.370000	99.520000	0.00536116
198.330000	21.690000	196.370000	0.00666667
69.110000	83.630000	136.080000	7.13838e-05
201.590000	33.890000	66.270000	0.00102791
254.390000	157.460000	312.900000	0.00301251
184.770000	29.870000	210.350000	0.00666667
69.720000	149.600000	159.930000	0.00112574
8.760000	148.730000	235.030000	0.00666667
67.860000	38.350000	304.170000	0.00584515
113.060000	19.530000	304.940000	0.00144995
70.460000	157.570000	57.620000	0.00666667
57.030000	141.650000	205.580000	0.00618827
84.420000	116.990000	132.330000	0.00106268
49.150000	30.360000	252.960000	0.00666667
203.080000	61.220000	336.620000	0.00244531
353.310000	117.320000	220.370000	0.00013741
79.750000	154.100000	188.880000	0.00666667
247.280000	43.600000	34.340000	0.00151814
229.500000	68.850000	324.810000	0.000393291
99.260000	30.090000	315.260000	0.000569775
329.400000	37.850000	31.290000	0.000636229
139.560000	26.590000	200.810000	0.00666667
18.350000	133.250000	234.210000	0.00261315
129.510000	55.460000	87.350000	0.000498256
278.350000	50.960000	110.820000	0.00119318
245.330000	119.810000	214.200000	0.000235245
207.740000	147.670000	300.330000	0.00408315
10.640000	154.240000	29.640000	0.00666667
339.180000	176.240000	304.450000	0.00428349
264.120000	28.960000	186.150000	0.00666667
86.600000	78.380000	292.280000	0.000217888
213.320000	39.630000	26.580000	0.00666667
88.960000	24.550000	4.220000	0.00514349
152.940000	135.910000	211.960000	0.000556482
248.830000	22.540000	46.940000	0.00666667
141.590000	50.050000	261.300000	0.000775398
179.440000	44.820000	183.730000	0.00119523
210.020000	138.120000	314.560000	0.000523311
241.850000	30.640000	287.690000	0.000834038
315.140000	14.780000	298.870000	0.00285182
198.080000	143.580000	275.040000	1.04861e-05
103.500000	154.260000	256.860000	0.00465433
18.730000	19.980000	119.840000	0.00534899
79.540000	87.280000	222.130000	0.000115382
42.860000	37.490000	265.670000	0.00519134
191.730000	26.450000	239.970000	0.00666667
21.860000	63.940000	41.370000	8.16948e-05
264.550000	145.760000	171.840000	0.00595966
253.700000	51.570000	316.040000	0.00105285
229.530000	155.330000	125.260000	0.00666667
210.880000	38.740000	83.910000	0.00384847
223.380000	114.360000	38.550000	3.47297e-05
62.500000	48.710000	145.560000	0.00256896
18.890000	40.050000	340.480000	0.000149589
37.390000	32.600000	323.530000	0.00376916
4.750000	110.410000	288.530000	0.000323536
227.660000	27.350000	277.770000	0.00666667
39.300000	114.550000	36.470000	0.000173919
300.440000	46.650000	49.480000	0.00222776
130.250000	48.880000	157.050000	2.14098e-05
26.100000	34.560000	260.870000	0.00666667
198.620000	151.680000	75.010000	0.00325452
141.920000	147.060000	41.380000	0.00666667
273.990000	144.290000	92.170000	0.00583058
12.090000	139.140000	42.130000	4.20284e-05
336.210000	144.180000	324.000000	0.00666667
163.690000	136.780000	24.970000	0.000259061
241.040000	59.760000	261.510000	0.000419
251.820000	39.190000	265.860000	9.93444e-05
222.600000	36.970000	157.700000	0.00666667
317.970000	128.960000	150.940000	4.19569e-06
78.130000	144.790000	32.810000	0.00666667
58.590000	45.170000	308.560000	0.00275923
73.940000	146.170000	220.560000	0.00666667
4.280000	102.650000	218.530000	0.00015002
283.140000	113.720000	252.710000	9.63996e-05
53.700000	49.320000	122.940000	0.00199017
103.130000	44.500000	274.000000	0.00118623
335.760000	117.720000	142.900000	0.000976047
10.590000	19.930000	350.050000	0.00666667
87.920000	25.940000	49.200000	0.00666667
248.870000	72.190000	157.850000	0.000726047
182.410000	138.560000	14.230000	0.00414411
345.400000	50.370000	310.180000	0.00175695
182.610000	34.950000	32.790000	0.00666667
56.270000	28.890000	285.410000	0.00277387
333.910000	75.740000	64.690000	2.38903e-05
144.200000	156.410000	88.870000	0.00101618
79.520000	90.600000	99.720000	0.000228275
305.310000	75.320000	278.460000	0.000169261
93.800000	126.560000	165.940000	0.000152539
139.590000	102.730000	15.200000	0.000288856
20.290000	105.660000	81.960000	0.000114118
107.780000	48.560000	146.190000	0.00250323
115.890000	35.150000	135.300000	0.00269053
211.530000	73.290000	161.220000	2.02678e-05
350.210000	25.680000	277.140000	0.00581506
61.120000	167.230000	124.650000	0.00666667
178.080000	142.090000	53.350000	0.00666667
311.860000	29.770000	267.720000	0.00250876
80.620000	146.850000	18.370000	0.00363266
100.860000	123.840000	106.680000	0.000175226
78.150000	139.690000	305.460000	0.00661076
277.060000	103.710000	133.990000	0.000291047
165.040000	36.950000	264.000000	0.00666667
64.770000	101.690000	318.510000	0.00013601
197.720000	123.760000	224.280000	0.000555653
148.380000	33.550000	18.410000	0.00666667
184.390000	22.610000	351.650000	0.00666667
49.330000	155.800000	92.900000	0.0065845
127.980000	22.320000	288.320000	0.00666667
281.480000	34.300000	175.960000	0.00496595
89.670000	120.000000	104.280000	0.000942356
85.260000	137.670000	22.300000	0.00162643
280.200000	42.310000	208.840000	0.00139499
279.240000	85.070000	333.670000	0.000269732
247.870000	137.510000	150.980000	0.00133956
141.250000	97.890000	167.140000	6.51932e-05
259.350000	35.430000	319.880000	0.00256979
168.900000	121.350000	271.460000	0.00050824
262.060000	124.000000	8.500000	0.000524991
90.780000	9.660000	212.970000	0.00666667
202.230000	143.490000	141.450000	0.00666667
149.160000	155.490000	205.870000	0.00666667
347.810000	39.240000	91.320000	0.00252449
127.220000	171.180000	66.030000	0.00459326
305.510000	168.450000	262.860000	0.002605
353.360000	164.330000	356.120000	0.00624568
9.490000	141.050000	111.730000	0.00666667
75.030000	127.890000	332.340000	0.000691619
151.040000	94.870000	162.950000	0.000421658
17.620000	53.770000	64.900000	0.00118643
73.920000	100.350000	191.120000	0.000137685
1.760000	158.200000	96.720000	0.00384228
33.500000	152.110000	227.780000	0.00666667
303.430000	154.770000	8.170000	0.00666667
343.780000	131.300000	115.000000	0.00227066
306.530000	28.520000	204.420000	0.00666667
42.410000	28.780000	212.660000	0.00379898
334.220000	24.330000	74.130000	0.00190879
124.650000	19.470000	32.100000	0.00271077
228.950000	155.070000	130.660000	0.00581667
101.050000	30.540000	19.260000	0.00666667
215.950000	84.400000	98.300000	0.000779995
342.670000	140.000000	234.550000	0.00162982
200.390000	50.870000	114.780000	0.000202401
348.450000	29.110000	30.440000	0.00486705
296.820000	137.020000	137.310000	0.00369479
311.740000	119.780000	283.870000	0.000211288
326.280000	156.070000	244.860000	0.00666667
15.900000	35.000000	25.190000	0.00666667
141.470000	139.020000	248.510000	0.00277854
340.090000	139.770000	298.740000	0.00343411
112.190000	19.250000	85.070000	0.00666667
128.230000	104.450000	26.720000	0.000169446
126.550000	132.280000	278.880000	0.00233015
217.280000	123.240000	353.970000	1.41128e-05
141.290000	136.500000	151.490000	0.00152495
285.660000	159.950000	78.340000	0.00666667
302.440000	52.600000	276.820000	0.00153668
320.330000	32.830000	43.000000	0.00666667
85.180000	29.140000	294.810000	0.000305001
116.900000	31.400000	310.960000	0.00666667
337.450000	108.360000	208.590000	0.000336688
5.000000	39.120000	296.660000	0.00095763
49.040000	156.530000	79.950000	0.00666667
161.710000	41.210000	214.640000	0.00174953
74.530000	48.070000	285.030000	0.000441589
232.140000	45.260000	10.240000	0.00472702
139.880000	177.150000	32.220000	0.000715279
54.480000	145.420000	54.850000	0.00512324
100.190000	41.810000	116.640000	0.0041931
100.240000	83.620000	31.960000	5.11419e-06
149.970000	80.710000	215.410000	0.000353204
3.670000	25.970000	163.970000	0.00666667
125.740000	40.090000	83.510000	0.00245349
316.890000	95.230000	30.200000	0.000224152
165.710000	29.490000	302.620000	0.00666667
343.900000	102.540000	336.310000	0.00017109
121.030000	157.620000	301.430000	0.00516234
196.190000	57.700000	274.010000	0.000810161
277.260000	51.470000	326.050000	0.00384765
355.730000	60.690000	13.550000	0.000324481
208.350000	61.850000	41.030000	0.000680793
349.210000	105.400000	45.930000	1.88672e-05
314.080000	47.700000	73.450000	0.00120925
