TEXTURE AT STRAIN
   1.0   1.0   1.0
DISCRETE TEXTURE FROM ODF FILE  5678.sod                                
B    284
330.00000 0.00000 0.00000 0.68643
345.00000 0.00000 0.00000 0.64844
0.00000 0.00000 0.00000 0.63492
15.00000 0.00000 0.00000 0.67225
90.00000 16.36364 240.00000 0.76215
90.00000 16.36364 255.00000 0.74180
90.00000 16.36364 270.00000 0.72462
90.00000 16.36364 285.00000 0.73968
150.00000 16.36364 180.00000 1.39583
150.00000 16.36364 195.00000 1.30054
150.00000 16.36364 210.00000 1.30430
150.00000 16.36364 225.00000 1.39643
210.00000 16.36364 120.00000 1.21155
210.00000 16.36364 135.00000 1.19148
210.00000 16.36364 150.00000 1.12447
210.00000 16.36364 165.00000 1.14101
270.00000 16.36364 60.00000 0.79515
270.00000 16.36364 75.00000 0.76866
270.00000 16.36364 90.00000 0.78314
270.00000 16.36364 105.00000 0.80512
330.00000 16.36364 0.00000 1.52853
330.00000 16.36364 15.00000 1.42635
330.00000 16.36364 30.00000 1.46814
330.00000 16.36364 45.00000 1.56855
30.00000 16.36364 300.00000 1.56941
30.00000 16.36364 315.00000 1.52831
30.00000 16.36364 330.00000 1.45588
30.00000 16.36364 345.00000 1.48853
106.36364 32.72727 223.63636 0.82972
106.36364 32.72727 238.63636 0.83159
106.36364 32.72727 253.63636 0.84485
106.36364 32.72727 268.63636 0.84583
139.09091 32.72727 190.90909 2.16738
139.09091 32.72727 205.90909 2.05276
139.09091 32.72727 220.90909 2.22668
139.09091 32.72727 235.90909 2.34304
171.81818 32.72727 158.18182 4.81945
171.81818 32.72727 173.18182 4.38443
171.81818 32.72727 188.18182 4.29141
171.81818 32.72727 203.18182 4.72150
204.54545 32.72727 125.45455 2.61763
204.54545 32.72727 140.45455 2.65891
204.54545 32.72727 155.45455 2.41994
204.54545 32.72727 170.45455 2.37664
237.27273 32.72727 92.72727 0.77000
237.27273 32.72727 107.72727 0.81066
237.27273 32.72727 122.72727 0.80242
237.27273 32.72727 137.72727 0.76232
270.00000 32.72727 60.00000 0.65229
270.00000 32.72727 75.00000 0.63416
270.00000 32.72727 90.00000 0.63877
270.00000 32.72727 105.00000 0.65725
302.72727 32.72727 27.27273 0.92076
302.72727 32.72727 42.27273 0.90714
302.72727 32.72727 57.27273 0.97196
302.72727 32.72727 72.27273 0.98613
335.45455 32.72727 354.54545 2.44788
335.45455 32.72727 9.54545 2.22584
335.45455 32.72727 24.54545 2.35901
335.45455 32.72727 39.54545 2.58502
8.18182 32.72727 321.81818 3.77908
8.18182 32.72727 336.81818 3.58116
8.18182 32.72727 351.81818 3.31754
8.18182 32.72727 6.81818 3.50468
40.90909 32.72727 289.09091 1.80167
40.90909 32.72727 304.09091 1.89725
40.90909 32.72727 319.09091 1.76622
40.90909 32.72727 334.09091 1.67257
73.63636 32.72727 256.36364 0.76921
73.63636 32.72727 271.36364 0.78331
73.63636 32.72727 286.36364 0.76597
73.63636 32.72727 301.36364 0.75296
90.00000 49.09091 240.00000 0.47434
90.00000 49.09091 255.00000 0.45835
90.00000 49.09091 270.00000 0.44788
90.00000 49.09091 285.00000 0.46412
114.00000 49.09091 216.00000 0.59282
114.00000 49.09091 231.00000 0.61398
114.00000 49.09091 246.00000 0.62873
114.00000 49.09091 261.00000 0.60563
138.00000 49.09091 192.00000 1.34232
138.00000 49.09091 207.00000 1.32853
138.00000 49.09091 222.00000 1.51623
138.00000 49.09091 237.00000 1.53286
162.00000 49.09091 168.00000 4.24390
162.00000 49.09091 183.00000 3.69222
162.00000 49.09091 198.00000 3.92360
162.00000 49.09091 213.00000 4.47986
186.00000 49.09091 144.00000 4.53458
186.00000 49.09091 159.00000 4.20965
186.00000 49.09091 174.00000 3.72808
186.00000 49.09091 189.00000 4.04645
210.00000 49.09091 120.00000 1.34669
210.00000 49.09091 135.00000 1.48873
210.00000 49.09091 150.00000 1.35047
210.00000 49.09091 165.00000 1.21241
234.00000 49.09091 96.00000 0.39466
234.00000 49.09091 111.00000 0.42981
234.00000 49.09091 126.00000 0.45221
234.00000 49.09091 141.00000 0.41740
258.00000 49.09091 72.00000 0.34457
258.00000 49.09091 87.00000 0.31660
258.00000 49.09091 102.00000 0.31879
258.00000 49.09091 117.00000 0.34672
282.00000 49.09091 48.00000 0.34337
282.00000 49.09091 63.00000 0.34156
282.00000 49.09091 78.00000 0.31540
282.00000 49.09091 93.00000 0.31760
306.00000 49.09091 24.00000 0.38057
306.00000 49.09091 39.00000 0.40366
306.00000 49.09091 54.00000 0.43913
306.00000 49.09091 69.00000 0.41415
330.00000 49.09091 0.00000 1.08344
330.00000 49.09091 15.00000 0.98590
330.00000 49.09091 30.00000 1.14081
330.00000 49.09091 45.00000 1.24110
354.00000 49.09091 336.00000 2.87654
354.00000 49.09091 351.00000 2.47531
354.00000 49.09091 6.00000 2.36186
354.00000 49.09091 21.00000 2.76050
18.00000 49.09091 312.00000 2.46415
18.00000 49.09091 327.00000 2.48117
18.00000 49.09091 342.00000 2.13800
18.00000 49.09091 357.00000 2.12089
42.00000 49.09091 288.00000 0.90675
42.00000 49.09091 303.00000 1.02016
42.00000 49.09091 318.00000 0.96178
42.00000 49.09091 333.00000 0.85000
66.00000 49.09091 264.00000 0.43972
66.00000 49.09091 279.00000 0.45668
66.00000 49.09091 294.00000 0.47578
66.00000 49.09091 309.00000 0.45763
100.00000 65.45455 230.00000 0.34694
100.00000 65.45455 245.00000 0.32549
100.00000 65.45455 260.00000 0.28433
100.00000 65.45455 275.00000 0.30509
120.00000 65.45455 210.00000 0.33434
120.00000 65.45455 225.00000 0.37020
120.00000 65.45455 240.00000 0.35643
120.00000 65.45455 255.00000 0.32065
140.00000 65.45455 190.00000 0.40757
140.00000 65.45455 205.00000 0.44280
140.00000 65.45455 220.00000 0.52662
140.00000 65.45455 235.00000 0.49182
160.00000 65.45455 170.00000 1.50389
160.00000 65.45455 185.00000 1.22349
160.00000 65.45455 200.00000 1.46163
160.00000 65.45455 215.00000 1.75782
180.00000 65.45455 150.00000 2.51513
180.00000 65.45455 165.00000 2.07486
180.00000 65.45455 180.00000 1.70942
180.00000 65.45455 195.00000 2.12905
200.00000 65.45455 130.00000 0.85057
200.00000 65.45455 145.00000 0.97823
200.00000 65.45455 160.00000 0.79375
200.00000 65.45455 175.00000 0.67152
220.00000 65.45455 110.00000 0.21652
220.00000 65.45455 125.00000 0.27206
220.00000 65.45455 140.00000 0.29640
220.00000 65.45455 155.00000 0.23696
240.00000 65.45455 90.00000 0.20528
240.00000 65.45455 105.00000 0.19397
240.00000 65.45455 120.00000 0.24020
240.00000 65.45455 135.00000 0.25180
260.00000 65.45455 70.00000 0.25155
260.00000 65.45455 85.00000 0.19557
260.00000 65.45455 100.00000 0.18297
260.00000 65.45455 115.00000 0.23803
280.00000 65.45455 50.00000 0.23534
280.00000 65.45455 65.00000 0.24197
280.00000 65.45455 80.00000 0.19148
280.00000 65.45455 95.00000 0.18479
300.00000 65.45455 30.00000 0.18920
300.00000 65.45455 45.00000 0.22033
300.00000 65.45455 60.00000 0.22220
300.00000 65.45455 75.00000 0.19097
320.00000 65.45455 10.00000 0.22556
320.00000 65.45455 25.00000 0.24558
320.00000 65.45455 40.00000 0.29220
320.00000 65.45455 55.00000 0.27140
340.00000 65.45455 350.00000 0.77007
340.00000 65.45455 5.00000 0.62035
340.00000 65.45455 20.00000 0.76817
340.00000 65.45455 35.00000 0.92320
0.00000 65.45455 330.00000 1.73744
0.00000 65.45455 345.00000 1.41094
0.00000 65.45455 0.00000 1.17334
0.00000 65.45455 15.00000 1.48616
20.00000 65.45455 310.00000 0.89942
20.00000 65.45455 325.00000 0.98851
20.00000 65.45455 340.00000 0.81294
20.00000 65.45455 355.00000 0.72676
40.00000 65.45455 290.00000 0.33043
40.00000 65.45455 305.00000 0.37976
40.00000 65.45455 320.00000 0.36761
40.00000 65.45455 335.00000 0.31874
60.00000 65.45455 270.00000 0.25028
60.00000 65.45455 285.00000 0.27421
60.00000 65.45455 300.00000 0.30443
60.00000 65.45455 315.00000 0.27944
80.00000 65.45455 250.00000 0.27360
80.00000 65.45455 265.00000 0.23205
80.00000 65.45455 280.00000 0.25110
80.00000 65.45455 295.00000 0.29332
90.00000 81.81818 240.00000 0.20131
90.00000 81.81818 255.00000 0.13719
90.00000 81.81818 270.00000 0.12067
90.00000 81.81818 285.00000 0.18485
108.00000 81.81818 222.00000 0.23811
108.00000 81.81818 237.00000 0.24264
108.00000 81.81818 252.00000 0.18956
108.00000 81.81818 267.00000 0.18436
126.00000 81.81818 204.00000 0.21425
126.00000 81.81818 219.00000 0.25149
126.00000 81.81818 234.00000 0.23461
126.00000 81.81818 249.00000 0.19801
144.00000 81.81818 186.00000 0.19440
144.00000 81.81818 201.00000 0.26122
144.00000 81.81818 216.00000 0.31623
144.00000 81.81818 231.00000 0.24567
162.00000 81.81818 168.00000 0.96801
162.00000 81.81818 183.00000 0.69504
162.00000 81.81818 198.00000 1.02858
162.00000 81.81818 213.00000 1.33039
180.00000 81.81818 150.00000 2.34427
180.00000 81.81818 165.00000 1.75820
180.00000 81.81818 180.00000 1.20691
180.00000 81.81818 195.00000 1.73375
198.00000 81.81818 132.00000 0.73667
198.00000 81.81818 147.00000 1.01521
198.00000 81.81818 162.00000 0.79479
198.00000 81.81818 177.00000 0.53686
216.00000 81.81818 114.00000 0.16086
216.00000 81.81818 129.00000 0.21393
216.00000 81.81818 144.00000 0.25962
216.00000 81.81818 159.00000 0.20257
234.00000 81.81818 96.00000 0.14341
234.00000 81.81818 111.00000 0.14710
234.00000 81.81818 126.00000 0.19706
234.00000 81.81818 141.00000 0.19409
252.00000 81.81818 78.00000 0.16298
252.00000 81.81818 93.00000 0.10484
252.00000 81.81818 108.00000 0.12959
252.00000 81.81818 123.00000 0.18790
270.00000 81.81818 60.00000 0.19600
270.00000 81.81818 75.00000 0.17075
270.00000 81.81818 90.00000 0.10484
270.00000 81.81818 105.00000 0.12979
288.00000 81.81818 42.00000 0.15156
288.00000 81.81818 57.00000 0.19417
288.00000 81.81818 72.00000 0.18829
288.00000 81.81818 87.00000 0.14660
306.00000 81.81818 24.00000 0.19703
306.00000 81.81818 39.00000 0.19438
306.00000 81.81818 54.00000 0.19659
306.00000 81.81818 69.00000 0.19833
324.00000 81.81818 6.00000 0.20949
324.00000 81.81818 21.00000 0.27284
324.00000 81.81818 36.00000 0.30033
324.00000 81.81818 51.00000 0.23576
342.00000 81.81818 348.00000 0.88550
342.00000 81.81818 3.00000 0.68513
342.00000 81.81818 18.00000 1.01743
342.00000 81.81818 33.00000 1.23512
0.00000 81.81818 330.00000 2.29957
0.00000 81.81818 345.00000 1.71733
0.00000 81.81818 0.00000 1.25510
0.00000 81.81818 15.00000 1.79028
18.00000 81.81818 312.00000 0.82152
18.00000 81.81818 327.00000 1.08062
18.00000 81.81818 342.00000 0.87835
18.00000 81.81818 357.00000 0.63237
36.00000 81.81818 294.00000 0.21886
36.00000 81.81818 309.00000 0.22630
36.00000 81.81818 324.00000 0.26379
36.00000 81.81818 339.00000 0.25685
54.00000 81.81818 276.00000 0.18548
54.00000 81.81818 291.00000 0.20760
54.00000 81.81818 306.00000 0.19481
54.00000 81.81818 321.00000 0.17220
72.00000 81.81818 258.00000 0.13953
72.00000 81.81818 273.00000 0.13462
72.00000 81.81818 288.00000 0.18810
72.00000 81.81818 303.00000 0.19313
