TEXTURE AT STRAIN = 0
1.0   1.0   1.0
DISCRETE TEXTURE FROM ODF FILE VPSC_Texture\RD_EBSD_Initial.TEX
B 448
86.310000	145.810000	135.190000	0.00333333
89.020000	158.240000	129.980000	0.00333333
323.520000	151.280000	289.420000	0.00333333
241.470000	38.440000	278.630000	0.000865777
70.440000	56.840000	184.970000	5.28194e-05
69.360000	33.250000	191.390000	0.00333333
284.030000	155.140000	19.950000	0.00117275
105.610000	18.230000	149.420000	0.00104447
141.730000	158.860000	107.220000	0.00333333
168.240000	4.100000	50.780000	0.00333333
47.650000	31.300000	16.850000	0.00333333
181.920000	37.250000	281.470000	0.00104911
349.070000	27.790000	303.620000	0.00333333
2.940000	33.550000	158.580000	0.00333333
32.470000	157.860000	170.830000	0.00195819
179.260000	57.270000	1.380000	0.00141773
200.940000	35.130000	42.060000	0.00333333
17.160000	121.220000	19.920000	0.000430245
70.610000	99.310000	125.060000	0.000152742
95.860000	154.870000	196.720000	0.00333333
39.820000	28.500000	257.040000	0.00333333
272.340000	153.870000	117.110000	0.00333333
201.570000	24.390000	18.820000	0.00333333
352.160000	142.390000	327.750000	0.00333333
273.310000	149.800000	158.560000	0.00333333
81.020000	60.250000	304.790000	0.000793525
342.120000	139.810000	99.950000	0.00333333
132.090000	28.340000	5.320000	0.00333333
164.120000	35.560000	251.670000	0.00333333
268.730000	147.880000	21.090000	0.00140278
97.060000	155.710000	170.260000	0.00131938
134.120000	90.310000	83.180000	0.00013161
225.960000	23.390000	332.170000	0.0015365
139.300000	38.370000	49.110000	0.000265241
278.550000	147.610000	336.820000	0.000294549
101.930000	23.490000	262.780000	0.00263046
16.440000	31.320000	215.640000	0.00308622
348.510000	132.880000	137.660000	0.00194686
28.550000	155.540000	164.970000	0.00333333
262.400000	27.170000	11.730000	0.00295944
91.580000	46.760000	65.940000	0.000969235
95.740000	149.060000	42.240000	0.000290708
91.380000	79.540000	162.530000	0.000883499
15.020000	147.830000	12.030000	0.00333333
141.780000	146.640000	314.180000	0.000264509
97.330000	23.660000	264.210000	0.00333333
113.820000	137.820000	14.670000	0.00113302
8.270000	158.600000	339.340000	0.00333333
13.140000	145.280000	254.380000	0.00333333
138.080000	129.980000	250.420000	0.00141091
232.420000	61.280000	144.040000	0.00111304
219.080000	137.620000	241.850000	0.000820653
148.630000	41.000000	255.370000	0.00173682
149.770000	158.360000	297.770000	0.00261023
126.190000	33.970000	107.190000	0.00333333
17.100000	139.630000	116.290000	0.00333333
216.590000	25.520000	316.950000	0.00333333
179.880000	26.110000	320.680000	0.0026684
234.400000	20.710000	190.520000	0.00268288
325.880000	100.600000	338.870000	0.000166418
336.440000	158.350000	338.100000	0.00333333
29.390000	115.120000	320.760000	0.000786683
8.630000	28.710000	243.830000	0.00317622
234.140000	35.030000	98.690000	0.00333333
294.150000	152.220000	236.660000	0.0024193
283.310000	159.870000	221.550000	0.00333333
118.800000	59.330000	24.480000	0.000421052
181.830000	138.620000	80.820000	0.000456251
126.190000	40.460000	161.720000	0.00183941
334.890000	158.270000	40.830000	0.0016064
9.320000	158.120000	49.440000	0.000328337
65.010000	109.540000	78.430000	0.000344897
143.960000	38.490000	343.400000	0.00269211
19.710000	38.650000	102.070000	0.00301293
249.670000	138.790000	23.290000	0.000147306
200.900000	154.180000	56.630000	0.00333333
339.020000	41.220000	69.220000	0.00333333
22.300000	133.630000	105.330000	0.00332192
101.600000	134.140000	221.460000	0.00263424
62.220000	93.080000	311.020000	0.000254606
127.860000	144.490000	66.950000	0.00333333
191.930000	23.250000	319.840000	0.00333333
201.540000	151.710000	291.800000	0.00333333
240.870000	121.850000	47.170000	0.000733921
354.910000	34.420000	343.190000	0.00114965
297.490000	148.640000	314.020000	0.000144264
308.180000	146.140000	59.710000	0.000757906
268.390000	30.420000	83.890000	0.00333333
47.910000	34.040000	133.530000	0.00333333
322.740000	155.730000	160.310000	0.00333333
202.340000	35.620000	100.460000	0.00249595
57.770000	137.630000	118.870000	0.00295179
98.240000	27.320000	108.460000	0.00333333
134.910000	165.270000	124.270000	0.00311356
282.170000	27.590000	337.820000	0.00194937
104.030000	36.430000	41.330000	0.00333333
135.480000	151.210000	254.140000	0.00333333
354.490000	28.640000	261.520000	0.0013468
3.480000	11.740000	302.340000	0.00333333
162.280000	44.930000	242.160000	0.00179248
37.950000	154.300000	348.240000	0.00333333
260.780000	22.560000	254.220000	0.00256316
7.560000	34.110000	282.320000	0.00333333
22.130000	158.720000	355.500000	0.00333333
141.820000	91.490000	219.280000	0.000206554
168.750000	135.390000	158.700000	0.00333333
140.490000	31.160000	255.940000	0.00170062
218.260000	87.400000	210.720000	0.000506958
25.250000	141.530000	303.450000	0.00333333
101.720000	144.160000	153.090000	0.00308216
68.830000	31.010000	318.220000	0.00327475
280.090000	31.640000	39.120000	0.00194702
348.850000	36.570000	211.170000	0.00333333
131.330000	138.490000	11.290000	0.00213068
196.370000	33.000000	230.450000	0.000369753
308.760000	21.760000	128.720000	0.00333333
188.130000	155.800000	233.360000	0.00120403
83.260000	27.560000	134.010000	0.00333333
232.750000	166.590000	114.510000	0.000208328
174.990000	22.190000	200.090000	0.00333333
130.840000	32.540000	249.900000	0.00333333
340.840000	28.540000	128.310000	0.00333333
153.760000	74.150000	153.010000	0.00099409
350.740000	50.260000	33.150000	0.000202278
131.390000	102.130000	232.390000	0.000266435
216.650000	149.860000	161.450000	0.00333333
352.380000	145.440000	211.560000	0.00221649
150.560000	78.170000	343.880000	0.000526324
36.290000	28.880000	190.900000	0.00333333
293.550000	117.260000	93.060000	0.000205123
10.270000	34.210000	342.140000	0.00149213
155.770000	108.460000	207.180000	0.000422567
63.890000	140.280000	87.090000	0.00333333
181.470000	144.330000	83.450000	0.00333333
273.500000	31.180000	84.380000	0.00333333
146.590000	29.220000	8.310000	0.00333333
344.000000	29.610000	6.070000	0.00333333
266.430000	24.210000	57.210000	0.00333333
342.150000	7.580000	145.790000	0.000276779
262.290000	33.740000	329.720000	0.00312052
326.670000	139.500000	171.210000	0.00115288
256.360000	171.680000	40.930000	0.00333333
23.280000	22.900000	70.120000	0.0013766
283.510000	49.930000	9.570000	0.000133622
49.180000	135.600000	49.000000	0.00333333
230.320000	148.420000	348.870000	0.00333333
126.550000	149.280000	190.400000	0.00333333
234.710000	147.040000	103.540000	0.00333333
54.600000	34.750000	186.970000	0.00165823
135.070000	160.620000	243.940000	0.0021288
266.230000	93.120000	26.440000	0.000250505
33.040000	24.870000	135.850000	0.00333333
141.610000	159.300000	298.970000	0.00199865
345.150000	156.760000	34.410000	0.00333333
147.840000	26.250000	318.340000	0.00227001
94.010000	155.760000	231.850000	0.00333333
156.090000	135.220000	116.840000	0.00261404
135.810000	149.710000	251.990000	0.00333333
5.560000	177.210000	257.980000	0.00300818
235.760000	159.470000	195.150000	0.00333333
70.380000	105.240000	24.390000	0.000548296
108.440000	33.340000	283.980000	0.00198673
349.080000	36.300000	80.550000	0.00333333
163.490000	117.390000	38.610000	0.000385872
161.170000	131.120000	100.760000	0.00333333
244.880000	133.850000	185.720000	0.00229977
261.700000	52.140000	143.300000	0.00158067
243.810000	96.450000	158.840000	0.000496866
98.200000	35.160000	14.090000	0.00112358
128.850000	136.280000	211.110000	0.00197792
251.610000	75.630000	191.700000	0.000218353
203.160000	41.550000	301.060000	0.000282631
227.840000	33.420000	89.030000	0.00333333
356.580000	161.450000	152.840000	0.00151795
200.320000	151.320000	36.840000	3.73039e-05
339.490000	151.820000	47.550000	0.00333333
70.730000	137.790000	325.540000	0.00175553
330.950000	10.260000	153.380000	0.00333333
48.630000	165.790000	234.250000	0.00333333
259.380000	42.200000	353.090000	0.00333333
237.210000	33.810000	31.040000	0.00200856
176.040000	31.640000	23.230000	0.00162532
336.950000	23.520000	72.670000	0.00333333
186.550000	39.660000	157.400000	0.00333333
100.740000	109.050000	275.520000	0.000292168
106.610000	142.180000	38.600000	0.00333333
179.200000	69.410000	20.240000	0.000959685
148.810000	129.970000	130.420000	0.00106607
221.260000	178.130000	126.710000	0.00205275
154.330000	23.330000	74.490000	0.00333333
349.170000	145.250000	275.570000	0.00333333
47.910000	145.690000	201.840000	0.00333333
114.800000	38.470000	43.130000	0.00195304
40.600000	125.290000	223.300000	0.000352913
56.090000	135.490000	206.650000	0.000776659
137.430000	154.460000	44.420000	0.00277462
337.430000	48.280000	73.370000	0.000514485
198.370000	120.190000	103.790000	0.000485486
333.610000	156.460000	231.170000	0.00333333
23.480000	52.320000	256.760000	0.00333333
269.250000	145.760000	21.040000	0.00333333
33.890000	30.430000	204.130000	0.00333333
91.680000	51.790000	355.860000	0.00164234
358.250000	154.770000	334.090000	0.00333333
202.930000	135.770000	68.820000	0.00118083
237.430000	133.440000	17.710000	0.00117502
275.800000	145.730000	273.830000	0.00333333
202.440000	152.410000	125.360000	0.00333333
236.710000	36.480000	271.950000	0.00268222
160.270000	45.550000	268.840000	0.000490154
109.650000	42.620000	148.220000	0.00333333
275.220000	142.490000	256.270000	0.00162767
95.690000	148.110000	337.290000	0.00333333
117.500000	143.420000	126.070000	0.00138683
137.980000	26.810000	123.250000	0.00333333
55.040000	146.460000	88.110000	0.00333333
199.190000	151.190000	56.000000	0.00333333
116.840000	43.690000	218.590000	0.0021569
174.880000	169.730000	286.940000	0.00333333
227.660000	24.340000	139.520000	0.00333333
296.340000	47.600000	262.750000	0.00167462
272.740000	146.340000	228.520000	0.000894909
135.810000	26.720000	242.420000	0.00333333
292.400000	53.670000	195.160000	0.00150153
305.070000	45.930000	289.250000	0.00272058
21.080000	38.730000	280.620000	0.00333333
113.570000	141.870000	269.360000	0.000294025
74.210000	156.520000	46.270000	0.00333333
206.680000	123.590000	32.230000	0.000326546
75.570000	39.280000	78.230000	0.00188534
345.110000	72.600000	273.090000	6.21655e-05
165.520000	138.260000	35.020000	0.000120889
203.460000	148.860000	66.180000	0.000223665
9.030000	68.240000	102.920000	0.000634529
158.990000	37.280000	136.790000	0.00333333
275.350000	157.580000	198.240000	0.00333333
155.270000	158.830000	348.710000	0.000838102
158.530000	2.680000	176.260000	0.00255546
225.440000	145.380000	100.980000	0.000993621
223.030000	13.240000	73.610000	0.00233579
320.680000	19.170000	181.670000	0.00333333
84.290000	139.500000	72.690000	0.000786159
310.050000	123.790000	22.840000	0.000417243
192.440000	23.320000	258.570000	0.00333333
165.810000	23.320000	247.130000	0.0012632
332.500000	45.120000	190.450000	0.00333333
100.940000	40.010000	32.130000	0.000956133
340.300000	160.060000	347.900000	0.00113236
350.420000	25.800000	61.070000	0.000240096
331.490000	21.490000	66.510000	0.00333333
139.590000	150.050000	135.480000	0.00333333
176.070000	122.830000	109.050000	0.000193048
80.050000	126.830000	256.830000	0.00326513
276.130000	34.750000	30.250000	0.00333333
84.770000	49.310000	297.650000	0.00333333
336.950000	37.480000	238.900000	0.00166944
162.020000	124.260000	313.620000	0.000123879
39.890000	134.160000	350.040000	0.00195226
282.510000	139.350000	132.710000	0.00333333
308.180000	154.270000	170.720000	0.000611373
257.900000	126.230000	17.920000	0.000818657
268.300000	26.850000	200.790000	0.00333333
317.130000	49.840000	219.640000	0.00101031
127.360000	147.850000	132.210000	0.00333333
36.090000	31.520000	170.820000	0.00043038
192.980000	134.270000	189.970000	0.0030523
272.040000	38.710000	53.860000	0.00333333
249.210000	139.230000	15.090000	0.00333333
295.300000	150.600000	117.900000	0.00333333
87.810000	153.400000	291.150000	0.00333333
295.190000	42.450000	263.890000	0.00333333
206.620000	150.400000	348.280000	0.00333333
345.180000	150.050000	41.370000	0.000413018
346.050000	82.590000	246.090000	0.000321234
145.040000	154.110000	103.010000	0.00319549
102.170000	171.670000	351.090000	0.00333333
100.450000	31.670000	175.700000	0.00327068
47.570000	147.630000	264.220000	0.00333333
230.200000	41.330000	122.450000	0.00333333
157.400000	40.370000	275.420000	0.000985495
37.670000	129.320000	337.840000	0.00178252
260.700000	154.950000	98.700000	0.00200625
64.120000	34.350000	68.920000	0.00333333
82.800000	9.910000	183.010000	0.00333333
314.520000	134.160000	100.160000	0.00333333
262.380000	68.680000	114.360000	0.000233622
18.580000	112.980000	324.240000	0.000171806
183.920000	153.990000	355.860000	0.00333333
200.730000	25.420000	322.840000	0.00330187
84.850000	155.900000	171.640000	0.00333333
130.090000	114.960000	327.770000	0.00129398
195.340000	32.990000	280.110000	0.00333333
159.560000	140.850000	173.280000	0.0031594
313.140000	142.280000	105.310000	0.000698284
230.250000	41.400000	63.880000	0.00333333
216.430000	133.410000	100.320000	0.00303545
194.200000	36.750000	117.570000	0.00333333
34.880000	34.420000	43.020000	0.00276136
258.040000	39.030000	122.860000	0.00133485
226.830000	15.340000	80.130000	0.00140548
39.800000	22.240000	250.850000	0.00191767
341.080000	137.750000	324.960000	0.00333333
287.960000	128.860000	44.190000	0.00143617
347.440000	31.620000	254.460000	0.00333333
329.350000	23.530000	83.360000	0.000709685
50.300000	44.640000	257.270000	0.000480289
275.130000	147.200000	95.620000	0.00333333
137.490000	142.150000	345.520000	0.00189338
40.310000	96.940000	195.160000	0.00051207
356.300000	145.990000	273.600000	0.00333333
267.790000	66.660000	35.770000	8.58232e-05
216.920000	16.200000	28.970000	0.00333333
214.900000	95.660000	332.440000	0.000833498
331.550000	128.970000	17.820000	0.000582444
94.320000	154.250000	358.170000	0.00333333
3.130000	139.820000	141.940000	0.0028305
338.530000	141.400000	99.820000	0.0011325
132.780000	40.450000	222.570000	0.00333333
123.460000	163.100000	167.380000	0.00333333
266.650000	129.830000	193.270000	0.000798751
190.130000	59.970000	356.760000	0.000272877
192.830000	119.420000	115.230000	0.000291348
348.530000	146.230000	280.490000	0.00333333
127.020000	159.610000	41.610000	0.00333333
177.710000	146.920000	253.460000	0.00241162
326.080000	121.470000	45.910000	5.28303e-05
16.320000	146.580000	143.240000	0.00333333
112.180000	169.540000	230.330000	0.000369823
90.020000	18.360000	350.650000	0.00178071
45.580000	59.790000	87.150000	0.000404318
248.680000	139.770000	98.610000	0.00333333
48.800000	150.790000	278.840000	0.000905761
161.390000	26.140000	308.860000	0.00333333
187.390000	130.130000	39.910000	0.0019116
175.060000	143.000000	319.330000	0.00333333
314.300000	142.900000	348.000000	0.00333333
259.840000	49.980000	128.060000	0.00231184
125.110000	34.190000	351.130000	0.00333333
185.010000	138.000000	199.140000	0.00333333
59.180000	43.860000	199.960000	0.00333333
69.430000	39.200000	344.520000	0.00121159
93.710000	164.460000	271.540000	0.00333333
348.830000	61.770000	104.500000	0.000716445
296.750000	38.550000	279.420000	0.00333333
272.640000	98.360000	275.380000	5.22964e-05
107.500000	34.500000	222.300000	0.00333333
56.020000	46.690000	108.600000	0.000951834
46.260000	162.430000	275.200000	0.00333333
97.680000	7.440000	62.070000	0.00333333
193.330000	127.380000	236.760000	0.000381909
8.300000	145.150000	304.910000	0.00119968
161.220000	151.850000	170.690000	0.00333333
331.280000	155.360000	343.280000	0.00333333
233.160000	21.440000	315.380000	0.00333333
280.260000	158.050000	267.230000	0.00333333
50.210000	138.550000	34.640000	0.000947935
15.600000	25.750000	7.900000	0.00333333
312.500000	136.400000	209.040000	0.00313685
130.450000	22.830000	312.410000	0.000313849
272.370000	15.900000	208.660000	0.00333333
80.850000	27.390000	313.680000	0.00333333
149.900000	24.440000	312.650000	0.00333333
332.210000	26.410000	182.770000	0.00158062
343.910000	137.080000	223.260000	0.00333333
302.040000	80.510000	339.570000	4.55416e-05
199.600000	41.820000	54.870000	0.00252835
16.800000	156.400000	104.900000	0.00333333
74.170000	105.870000	267.070000	0.000212113
139.970000	119.740000	86.220000	0.000303209
183.180000	145.160000	81.780000	0.00183751
287.970000	48.260000	19.230000	0.00333333
106.720000	32.310000	287.970000	0.00333333
239.850000	157.760000	193.720000	0.0018309
122.570000	33.120000	289.280000	0.00333333
138.940000	48.280000	346.430000	0.00155581
154.610000	24.130000	186.880000	0.000706086
19.340000	104.450000	195.740000	0.000249781
261.130000	163.010000	193.830000	0.00252775
17.110000	53.110000	263.300000	0.00202308
235.680000	36.540000	51.230000	0.00333333
314.250000	30.710000	288.350000	0.00333333
104.760000	23.040000	223.210000	0.00239597
210.200000	26.730000	129.360000	0.00269871
117.140000	143.410000	337.210000	0.000813826
327.810000	23.050000	8.060000	0.00333333
139.810000	138.750000	48.010000	0.00316191
289.950000	50.330000	138.560000	0.00333333
14.660000	12.940000	234.010000	0.00270386
25.160000	158.390000	109.130000	0.00333333
332.020000	157.750000	46.590000	0.00333333
326.370000	25.240000	15.050000	0.00333333
347.630000	145.240000	272.650000	0.00333333
269.100000	150.740000	103.700000	0.00333333
264.970000	29.850000	169.940000	0.000445814
153.230000	25.450000	197.720000	0.00333333
279.370000	159.940000	99.360000	0.00260139
86.850000	31.160000	215.160000	0.00110136
193.920000	33.830000	35.840000	0.0001732
344.430000	28.680000	323.610000	0.000895435
165.790000	155.290000	350.640000	0.00333333
274.810000	133.190000	351.180000	0.00215063
227.920000	31.690000	87.280000	0.00333333
289.290000	40.330000	356.830000	0.000451244
231.270000	35.650000	178.630000	0.00203828
132.560000	25.780000	308.690000	0.00333333
143.500000	147.320000	4.990000	0.00333333
87.700000	28.870000	77.670000	0.00333333
225.890000	35.380000	341.870000	0.00249027
295.660000	42.460000	48.680000	0.00333333
29.480000	30.860000	346.510000	0.00333333
210.330000	141.650000	308.670000	0.00333333
280.790000	115.470000	302.920000	0.00106353
22.670000	121.210000	325.160000	0.00333333
48.100000	141.350000	262.650000	0.00107071
16.380000	136.200000	352.480000	0.00142256
149.960000	141.290000	359.410000	0.00175085
347.600000	34.420000	269.900000	0.00325329
132.290000	42.190000	102.200000	0.00333333
338.990000	159.080000	27.830000	0.00209761
228.020000	168.610000	45.450000	0.000421581
220.870000	150.450000	171.600000	0.00333333
8.570000	146.770000	66.960000	0.00333333
270.150000	24.270000	184.280000	0.00333333
86.520000	140.730000	234.400000	0.00164403
175.810000	24.000000	76.010000	0.00333333
108.830000	131.750000	336.020000	0.00023903
251.770000	142.740000	108.120000	0.00177965
61.210000	34.630000	140.580000	0.000715404
257.630000	165.770000	256.880000	0.00333333
40.740000	30.360000	141.380000	0.000500306
102.330000	163.310000	37.450000	0.00116844
130.530000	30.740000	301.960000	0.00333333
174.660000	153.780000	234.840000	0.00333333
54.050000	147.020000	53.780000	0.00173947
188.820000	24.340000	263.050000	0.00261411
31.990000	37.330000	116.110000	0.00276563
66.200000	30.980000	72.010000	0.00245471
122.500000	141.360000	150.570000	0.00210054
82.370000	26.930000	11.410000	0.00333333
266.690000	41.890000	246.760000	0.00333333
26.010000	142.790000	245.420000	0.00333333
279.520000	68.020000	342.250000	0.000871688
93.180000	37.500000	324.280000	0.000126304
279.490000	52.490000	259.870000	0.0020916
203.870000	37.660000	230.270000	0.00333333
93.560000	15.840000	105.490000	0.00333333
255.500000	37.610000	269.330000	0.00199903
89.890000	24.560000	233.700000	0.00333333
