TEXTURE AT STRAIN = 0
1.0   1.0   1.0
DISCRETE TEXTURE FROM ODF FILE RD_800C_initial
B 272
338.960000	134.420000	104.090000	0.000293567
169.510000	37.580000	60.500000	0.00666667
173.220000	28.700000	78.600000	0.00265463
336.770000	38.900000	346.110000	0.000312856
10.940000	144.210000	315.520000	0.00666667
340.000000	33.600000	142.980000	0.00625531
182.180000	108.650000	291.140000	0.0034906
178.350000	75.620000	328.530000	0.00361568
338.070000	36.280000	203.610000	0.00666667
211.590000	149.140000	270.670000	0.00517105
330.220000	130.110000	346.030000	0.00174083
137.600000	148.850000	210.620000	0.00014294
40.480000	28.810000	326.770000	0.00420127
18.510000	37.550000	175.410000	0.00565682
352.490000	107.370000	67.130000	0.00297828
184.510000	147.010000	27.740000	0.00666667
6.810000	87.230000	252.760000	0.00666667
356.710000	35.270000	4.150000	0.000485822
341.680000	35.380000	319.170000	0.00666667
129.820000	78.710000	144.980000	0.000416881
25.580000	149.870000	132.890000	0.00341258
335.800000	28.630000	61.760000	0.00666667
6.060000	66.530000	234.400000	0.00263552
82.520000	151.150000	244.040000	0.000249018
201.550000	30.580000	240.840000	0.00500759
333.110000	22.400000	345.570000	0.00404535
223.280000	19.230000	78.740000	0.00141333
217.600000	145.980000	39.730000	0.00354705
17.650000	148.260000	332.880000	0.0039425
22.260000	37.530000	55.340000	0.00666667
173.590000	39.850000	130.600000	0.00625057
182.550000	108.010000	344.010000	0.00666667
211.020000	146.900000	272.390000	0.00666667
1.240000	31.480000	270.450000	0.00419095
151.700000	88.970000	107.390000	0.00121153
184.910000	96.250000	326.390000	0.00666667
200.660000	51.610000	299.720000	0.00265329
201.070000	92.450000	266.700000	0.00282363
188.570000	160.280000	275.150000	0.00137935
179.020000	44.240000	126.870000	0.00666667
331.690000	34.370000	287.450000	0.00580997
308.190000	6.480000	159.750000	0.00174224
356.490000	94.440000	330.900000	0.00228787
157.890000	35.090000	30.040000	0.00666667
354.950000	90.450000	191.130000	0.00666667
235.420000	148.850000	149.420000	0.000548159
163.180000	82.120000	267.560000	0.00278753
200.160000	30.690000	258.480000	0.00300829
354.820000	89.390000	231.720000	0.00380411
21.500000	132.020000	216.330000	0.00229294
60.310000	63.360000	209.600000	3.34133e-05
300.710000	164.630000	356.950000	0.00134096
179.100000	37.990000	4.850000	0.00666667
176.060000	138.950000	346.720000	0.00636681
357.630000	65.680000	20.610000	0.00354065
44.550000	24.250000	327.630000	0.00561343
9.320000	149.030000	343.550000	0.00307223
188.420000	35.970000	279.770000	0.00560968
2.780000	147.170000	164.310000	0.00666667
103.310000	142.020000	154.330000	0.00180466
310.690000	155.630000	7.660000	0.00666667
189.840000	84.310000	29.390000	0.00496883
345.440000	70.270000	9.420000	0.00125719
53.170000	34.600000	120.170000	0.000187906
157.760000	32.940000	309.560000	0.00666667
7.420000	79.400000	297.950000	0.00228518
329.550000	20.610000	123.440000	0.000606856
348.540000	22.260000	62.950000	5.15054e-05
340.120000	152.270000	191.360000	0.00456684
2.390000	152.870000	2.350000	0.00666667
186.130000	149.400000	90.240000	0.00666667
343.040000	158.430000	62.170000	0.00385371
155.330000	149.550000	306.120000	0.00455715
23.180000	83.240000	346.290000	0.000507638
130.970000	144.070000	9.710000	0.00168822
178.810000	130.740000	211.080000	0.00666667
239.060000	156.070000	289.530000	0.00015006
357.830000	101.100000	62.020000	0.00116817
257.940000	27.230000	5.540000	0.000949774
284.180000	145.320000	60.560000	0.00198926
0.780000	105.160000	225.960000	0.00666667
180.520000	32.260000	184.370000	0.0012661
184.320000	149.740000	71.410000	0.00666667
9.930000	128.440000	248.490000	0.00666667
353.580000	130.040000	78.060000	0.000853056
22.480000	138.250000	63.270000	0.00275635
11.860000	144.870000	269.570000	0.00666667
159.670000	36.770000	307.480000	0.00410064
143.590000	34.850000	97.980000	0.0017971
158.720000	36.100000	216.360000	0.00215902
307.690000	147.030000	222.490000	0.0039803
188.800000	31.320000	92.650000	0.00606155
329.870000	146.530000	96.680000	0.000325575
8.340000	101.540000	172.640000	0.00666667
220.860000	14.440000	86.860000	0.000958622
27.950000	85.910000	140.690000	0.000434294
339.920000	112.280000	153.400000	0.000483968
185.900000	22.620000	169.210000	0.0056678
40.370000	158.740000	182.730000	0.00161213
142.910000	27.800000	325.390000	0.00309085
203.430000	142.820000	310.430000	0.00397478
354.350000	79.900000	280.030000	0.00666667
175.220000	48.790000	94.740000	0.00466594
153.530000	150.590000	179.420000	0.00449941
12.850000	118.760000	71.650000	0.00129
184.050000	70.480000	122.100000	0.00059853
201.970000	139.390000	149.190000	0.00465514
162.720000	33.920000	298.370000	0.00666667
205.850000	31.390000	222.920000	0.00666667
181.500000	144.710000	314.510000	0.00666667
196.470000	40.490000	284.790000	0.000617584
188.820000	34.830000	309.030000	0.00232764
3.600000	30.090000	109.790000	0.00666667
186.580000	101.750000	209.270000	0.00432307
358.070000	31.000000	189.470000	0.00666667
6.630000	154.300000	69.340000	0.00447309
227.580000	37.600000	121.550000	0.00047652
160.070000	94.170000	264.260000	0.000501084
70.400000	32.120000	243.810000	9.99362e-05
23.210000	140.460000	305.080000	0.00666667
8.410000	74.930000	308.080000	0.000367785
223.350000	26.940000	22.270000	0.000446081
158.450000	161.810000	210.300000	0.00102805
21.160000	45.750000	251.260000	0.000687262
96.270000	37.010000	138.170000	0.000265155
315.260000	32.020000	148.710000	0.00425285
36.970000	149.850000	238.110000	0.00370363
175.210000	97.010000	23.200000	0.00666667
337.050000	24.480000	10.510000	0.00255864
208.910000	33.950000	162.060000	0.00381601
185.010000	104.560000	35.600000	9.45402e-05
189.520000	32.970000	186.500000	0.00620797
326.970000	26.820000	175.090000	0.000930456
152.610000	142.490000	151.550000	0.00176391
187.140000	90.810000	150.880000	0.00666667
180.120000	49.700000	244.760000	0.000980273
354.720000	90.840000	323.490000	0.00666667
161.680000	33.960000	28.990000	0.00448591
22.140000	39.950000	84.410000	0.00444512
359.560000	106.640000	344.580000	0.00132414
18.770000	38.550000	179.240000	0.00529176
208.760000	148.010000	327.070000	0.00666667
191.590000	77.080000	330.520000	0.00529562
356.480000	29.540000	311.670000	0.00666667
3.780000	48.900000	48.890000	0.00449065
178.290000	146.780000	342.290000	0.000210333
354.420000	140.980000	277.780000	0.00372146
153.980000	149.930000	102.070000	0.00299848
3.700000	154.030000	296.640000	0.00278822
174.040000	63.410000	51.490000	0.00330443
176.070000	29.830000	72.180000	0.0036172
121.950000	36.560000	251.770000	0.00258433
351.940000	156.140000	341.360000	0.00259028
206.160000	33.540000	279.820000	0.00666667
56.200000	24.220000	290.350000	0.00193868
183.180000	44.400000	357.890000	0.00666667
175.790000	89.020000	308.810000	0.00582286
355.380000	82.660000	130.650000	0.00380366
27.950000	138.940000	62.830000	0.00280301
332.190000	43.390000	288.690000	0.000835089
8.340000	144.530000	271.330000	0.00666667
353.360000	39.680000	185.550000	0.00666667
42.640000	158.480000	82.610000	0.00666667
82.310000	33.720000	45.410000	0.000297513
164.620000	130.550000	234.400000	0.0064173
22.260000	147.450000	353.560000	0.00666667
45.440000	155.100000	84.460000	0.000363897
189.410000	86.260000	161.260000	0.00532699
9.730000	27.380000	159.270000	0.00666667
6.640000	89.450000	338.660000	0.00666667
7.550000	88.930000	326.570000	0.00283763
359.710000	29.650000	191.650000	0.00666667
6.860000	97.850000	289.020000	0.00188193
4.480000	85.150000	337.820000	0.0043122
225.090000	27.340000	224.910000	0.000446544
2.660000	30.360000	255.740000	0.00666667
174.720000	95.850000	204.020000	0.00581188
354.950000	170.950000	332.790000	0.000967432
182.770000	143.900000	15.860000	0.00076158
190.950000	34.080000	35.360000	0.00666667
7.690000	148.030000	20.220000	0.000512234
335.850000	29.540000	251.870000	0.00666667
356.380000	81.560000	338.060000	0.00214486
211.110000	143.940000	51.760000	0.00161904
343.660000	80.160000	330.890000	0.00271633
357.580000	141.000000	56.270000	0.00666667
7.570000	45.740000	46.410000	0.00208657
7.080000	85.350000	102.880000	0.00551296
169.670000	159.390000	304.070000	0.00420801
161.110000	35.550000	247.810000	0.00666667
178.030000	83.270000	207.000000	0.00307238
358.690000	26.350000	128.450000	0.00666667
178.550000	86.330000	56.200000	0.00289529
156.960000	143.530000	125.080000	0.00125087
5.550000	30.370000	63.590000	0.000781961
207.470000	33.840000	45.580000	0.00268893
194.280000	78.870000	154.520000	0.000622149
196.600000	79.060000	328.360000	0.000146296
352.100000	134.080000	28.580000	0.00403388
47.730000	40.360000	236.530000	0.000660344
174.830000	86.490000	282.460000	0.00666667
352.680000	41.250000	264.090000	0.000553737
10.090000	84.670000	183.650000	0.00417231
358.840000	106.100000	216.890000	0.00666667
187.020000	151.270000	240.860000	0.0041539
231.890000	168.230000	335.320000	0.00162833
1.590000	23.980000	13.510000	0.00365579
201.620000	44.330000	355.620000	0.00170569
16.170000	42.850000	356.120000	0.00255263
256.960000	34.350000	349.770000	0.00033565
38.610000	138.330000	194.410000	0.000455891
250.990000	40.680000	201.230000	0.000350633
171.280000	25.420000	321.590000	0.00666667
187.390000	87.140000	26.980000	0.00170583
20.400000	144.500000	195.230000	0.00540243
184.970000	94.260000	47.850000	0.001969
68.130000	41.380000	121.510000	0.000317027
217.630000	118.020000	133.700000	0.000975302
176.800000	87.160000	333.830000	0.00666667
340.920000	40.490000	51.520000	0.00303326
176.270000	86.070000	150.170000	0.00666667
358.470000	134.730000	62.730000	0.00305202
357.380000	94.310000	87.040000	0.00399334
155.000000	134.230000	96.300000	0.00534428
355.420000	83.040000	173.160000	0.00609174
193.570000	126.050000	88.060000	0.00226519
332.610000	139.770000	33.370000	0.00465155
138.770000	130.520000	163.400000	0.000806989
258.030000	27.410000	225.430000	0.00394188
173.520000	141.530000	182.310000	0.00537653
154.420000	13.560000	244.630000	0.00129547
153.110000	144.120000	22.090000	0.00176059
166.680000	29.210000	214.220000	0.00666667
165.580000	146.890000	47.860000	0.00666667
185.480000	152.610000	195.400000	0.00666667
227.380000	36.790000	227.440000	0.00140722
355.090000	40.690000	202.410000	0.00666667
244.350000	135.730000	287.400000	0.00228028
123.970000	154.350000	304.390000	0.00386169
5.220000	153.260000	182.420000	0.00666667
337.670000	145.570000	81.810000	0.00141617
4.560000	31.000000	66.590000	0.00666667
181.080000	151.460000	254.810000	0.000152296
351.930000	35.950000	127.550000	0.00666667
58.760000	40.440000	27.150000	0.000850511
185.570000	59.600000	234.320000	0.0016455
167.620000	34.870000	179.570000	0.00627883
176.840000	84.740000	331.400000	0.00666667
8.710000	99.830000	318.330000	0.00303981
352.160000	141.000000	356.540000	0.00666667
358.810000	105.720000	101.080000	0.00666667
48.430000	140.020000	45.770000	0.00239959
0.020000	156.610000	176.330000	0.00481122
346.090000	85.800000	208.920000	0.000114156
179.670000	140.220000	193.700000	0.00182089
354.740000	31.940000	188.790000	0.0042549
340.190000	130.370000	291.780000	0.00132702
348.030000	72.830000	21.850000	0.00470888
342.070000	148.990000	131.020000	0.00355791
6.380000	90.720000	152.920000	0.00666667
174.690000	26.180000	80.800000	0.00666667
164.450000	75.090000	321.670000	0.000709036
0.510000	42.210000	233.000000	0.00666667
11.270000	26.820000	149.850000	0.00336929
150.780000	31.970000	21.460000	0.00391316
228.180000	160.110000	292.550000	0.00194572
269.890000	41.590000	212.700000	0.000190359
188.670000	88.000000	331.200000	0.00666667
322.440000	19.140000	101.060000	0.00609506
4.600000	45.780000	112.640000	0.00551435
1.020000	157.720000	8.410000	0.00199747
153.840000	140.240000	27.320000	0.000280441
